Data from HR4C34221__4__15-11-34-392.txt Node

Date: Fri Apr 07 15:11:34 MSK 2023
User: 123
Spectrometer: HR4C3422
Trigger mode: 4
Integration Time (sec): 1,700000E-2
Scans to average: 1
Electric dark correction enabled: true
Nonlinearity correction enabled: false
Boxcar width: 0
XAxis mode: Wavelengths
Number of Pixels in Spectrum: 3648
>>>>>Begin Spectral Data<<<<<
195,326	-170,31
195,597	-170,31
195,868	-170,31
196,139	-0,31
196,409	-2,31
196,68	1,69
196,951	1,69
197,221	-4,31
197,492	1,69
197,762	2,69
198,033	2,69
198,304	-0,31
198,574	-3,31
198,845	0,69
199,116	-6,31
199,386	-5,31
199,657	2,69
199,927	5,69
200,198	10,69
200,468	-8,31
200,739	5,69
201,009	1,69
201,28	13,69
201,551	-7,31
201,821	9,69
202,092	9,69
202,362	-1,31
202,633	-14,31
202,903	-3,31
203,174	-0,31
203,444	-13,31
203,714	-0,31
203,985	3,69
204,255	-0,31
204,526	8,69
204,796	3,69
205,067	2,69
205,337	-6,31
205,607	-6,31
205,878	22,69
206,148	5,69
206,419	-6,31
206,689	0,69
206,959	-7,31
207,23	-1,31
207,5	2,69
207,77	-7,31
208,041	-3,31
208,311	-4,31
208,581	-12,31
208,852	-0,31
209,122	3,69
209,392	3,69
209,663	3,69
209,933	1,69
210,203	8,69
210,473	12,69
210,744	4,69
211,014	-0,31
211,284	13,69
211,554	-3,31
211,825	13,69
212,095	12,69
212,365	-0,31
212,635	3,69
212,905	1,69
213,176	10,69
213,446	-1,31
213,716	-1,31
213,986	0,69
214,256	0,69
214,526	3,69
214,797	16,69
215,067	2,69
215,337	6,69
215,607	-0,31
215,877	1,69
216,147	-4,31
216,417	5,69
216,687	4,69
216,957	-3,31
217,227	-3,31
217,497	3,69
217,767	-0,31
218,038	11,69
218,308	-3,31
218,578	-4,31
218,848	10,69
219,118	4,69
219,388	5,69
219,658	6,69
219,928	10,69
220,198	5,69
220,468	-6,31
220,737	5,69
221,007	5,69
221,277	-1,31
221,547	5,69
221,817	-0,31
222,087	1,69
222,357	1,69
222,627	17,69
222,897	-0,31
223,167	-0,31
223,437	-2,31
223,707	4,69
223,976	1,69
224,246	-7,31
224,516	0,69
224,786	0,69
225,056	14,69
225,326	7,69
225,595	1,69
225,865	11,69
226,135	-0,31
226,405	-6,31
226,675	-5,31
226,944	-6,31
227,214	-16,31
227,484	5,69
227,754	2,69
228,023	-4,31
228,293	1,69
228,563	3,69
228,833	-3,31
229,102	6,69
229,372	3,69
229,642	4,69
229,911	-5,31
230,181	0,69
230,451	9,69
230,72	1,69
230,99	-13,31
231,26	-1,31
231,529	8,69
231,799	-4,31
232,069	5,69
232,338	10,69
232,608	3,69
232,877	8,69
233,147	7,69
233,417	4,69
233,686	-2,31
233,956	-0,31
234,225	12,69
234,495	2,69
234,764	16,69
235,034	-1,31
235,304	2,69
235,573	12,69
235,843	11,69
236,112	-4,31
236,382	-1,31
236,651	-3,31
236,921	-8,31
237,19	9,69
237,46	-5,31
237,729	-2,31
237,998	6,69
238,268	0,69
238,537	10,69
238,807	4,69
239,076	2,69
239,346	7,69
239,615	-3,31
239,884	-1,31
240,154	9,69
240,423	3,69
240,693	14,69
240,962	5,69
241,231	-6,31
241,501	2,69
241,77	2,69
242,039	-0,31
242,309	2,69
242,578	0,69
242,847	0,69
243,116	3,69
243,386	4,69
243,655	6,69
243,924	-4,31
244,194	9,69
244,463	14,69
244,732	-1,31
245,001	0,69
245,271	14,69
245,54	-5,31
245,809	-11,31
246,078	-3,31
246,347	-10,31
246,617	-8,31
246,886	-6,31
247,155	12,69
247,424	7,69
247,693	-4,31
247,963	-17,31
248,232	0,69
248,501	1,69
248,77	-5,31
249,039	-0,31
249,308	-1,31
249,577	-10,31
249,846	4,69
250,115	-0,31
250,385	4,69
250,654	3,69
250,923	8,69
251,192	-3,31
251,461	4,69
251,73	9,69
251,999	-5,31
252,268	0,69
252,537	-1,31
252,806	3,69
253,075	0,69
253,344	-1,31
253,613	8,69
253,882	0,69
254,151	7,69
254,42	3,69
254,689	-6,31
254,958	-6,31
255,227	5,69
255,496	3,69
255,765	1,69
256,033	-8,31
256,302	-0,31
256,571	5,69
256,84	-2,31
257,109	-4,31
257,378	8,69
257,647	-9,31
257,916	0,69
258,184	-10,31
258,453	7,69
258,722	2,69
258,991	14,69
259,26	-2,31
259,529	-1,31
259,797	-3,31
260,066	-2,31
260,335	-1,31
260,604	12,69
260,873	6,69
261,141	-2,31
261,41	-16,31
261,679	-11,31
261,948	1,69
262,216	-2,31
262,485	-2,31
262,754	0,69
263,022	1,69
263,291	11,69
263,56	-4,31
263,829	1,69
264,097	-0,31
264,366	2,69
264,635	13,69
264,903	-5,31
265,172	-5,31
265,44	2,69
265,709	-4,31
265,978	1,69
266,246	6,69
266,515	-3,31
266,784	-0,31
267,052	1,69
267,321	-2,31
267,589	4,69
267,858	-4,31
268,126	10,69
268,395	4,69
268,663	-4,31
268,932	-1,31
269,201	13,69
269,469	5,69
269,738	3,69
270,006	6,69
270,275	0,69
270,543	7,69
270,811	-0,31
271,08	-14,31
271,348	2,69
271,617	-0,31
271,885	-4,31
272,154	8,69
272,422	3,69
272,691	3,69
272,959	-1,31
273,227	-4,31
273,496	-5,31
273,764	-1,31
274,033	11,69
274,301	-3,31
274,569	-4,31
274,838	10,69
275,106	-12,31
275,374	5,69
275,643	4,69
275,911	-10,31
276,179	-5,31
276,448	-1,31
276,716	10,69
276,984	9,69
277,252	9,69
277,521	9,69
277,789	-1,31
278,057	0,69
278,325	1,69
278,594	-1,31
278,862	4,69
279,13	-5,31
279,398	-0,31
279,667	1,69
279,935	12,69
280,203	-6,31
280,471	-16,31
280,739	0,69
281,008	1,69
281,276	-2,31
281,544	1,69
281,812	-8,31
282,08	2,69
282,348	14,69
282,616	10,69
282,884	0,69
283,153	12,69
283,421	-10,31
283,689	-5,31
283,957	2,69
284,225	-6,31
284,493	2,69
284,761	2,69
285,029	4,69
285,297	-2,31
285,565	-3,31
285,833	7,69
286,101	-5,31
286,369	0,69
286,637	-7,31
286,905	-7,31
287,173	-0,31
287,441	-4,31
287,709	-3,31
287,977	-4,31
288,245	-7,31
288,513	-5,31
288,781	6,69
289,049	0,69
289,317	-0,31
289,585	7,69
289,853	6,69
290,12	-0,31
290,388	-2,31
290,656	-6,31
290,924	-10,31
291,192	-8,31
291,46	7,69
291,728	-0,31
291,996	-10,31
292,263	3,69
292,531	11,69
292,799	-13,31
293,067	-0,31
293,335	0,69
293,602	-5,31
293,87	-6,31
294,138	6,69
294,406	3,69
294,673	-10,31
294,941	3,69
295,209	-10,31
295,477	-5,31
295,744	8,69
296,012	6,69
296,28	1,69
296,548	-13,31
296,815	-2,31
297,083	1,69
297,351	-5,31
297,618	-5,31
297,886	-11,31
298,154	0,69
298,421	-1,31
298,689	-3,31
298,956	-2,31
299,224	-11,31
299,492	-6,31
299,759	-0,31
300,027	-2,31
300,294	-1,31
300,562	3,69
300,83	-7,31
301,097	-13,31
301,365	-10,31
301,632	-0,31
301,9	-16,31
302,167	-2,31
302,435	3,69
302,702	-2,31
302,97	0,69
303,237	-4,31
303,505	13,69
303,772	-4,31
304,04	-5,31
304,307	-14,31
304,575	-10,31
304,842	-7,31
305,11	1,69
305,377	3,69
305,645	6,69
305,912	-3,31
306,179	-1,31
306,447	-1,31
306,714	-7,31
306,982	-2,31
307,249	0,69
307,516	-2,31
307,784	-13,31
308,051	-12,31
308,318	-1,31
308,586	14,69
308,853	1,69
309,12	-8,31
309,388	-0,31
309,655	-0,31
309,922	4,69
310,19	-0,31
310,457	3,69
310,724	-5,31
310,991	-12,31
311,259	-0,31
311,526	7,69
311,793	-10,31
312,06	-10,31
312,328	-4,31
312,595	-10,31
312,862	-4,31
313,129	-5,31
313,396	-9,31
313,664	3,69
313,931	-0,31
314,198	-15,31
314,465	0,69
314,732	-10,31
314,999	8,69
315,266	9,69
315,534	2,69
315,801	-6,31
316,068	4,69
316,335	-1,31
316,602	-2,31
316,869	-1,31
317,136	3,69
317,403	10,69
317,67	-4,31
317,937	-15,31
318,204	-1,31
318,471	-0,31
318,738	-2,31
319,005	-0,31
319,272	-4,31
319,539	-10,31
319,806	8,69
320,073	-8,31
320,34	4,69
320,607	-1,31
320,874	0,69
321,141	-4,31
321,408	-0,31
321,675	11,69
321,942	12,69
322,209	10,69
322,476	-5,31
322,743	-6,31
323,01	3,69
323,277	-1,31
323,544	-2,31
323,81	-22,31
324,077	-5,31
324,344	-1,31
324,611	-1,31
324,878	10,69
325,145	0,69
325,412	-5,31
325,678	-3,31
325,945	-6,31
326,212	-4,31
326,479	-4,31
326,746	-3,31
327,012	9,69
327,279	-4,31
327,546	-3,31
327,813	-16,31
328,079	-10,31
328,346	-8,31
328,613	-0,31
328,88	2,69
329,146	3,69
329,413	-9,31
329,68	-0,31
329,946	-6,31
330,213	-4,31
330,48	-2,31
330,746	-12,31
331,013	0,69
331,28	-1,31
331,546	-1,31
331,813	5,69
332,08	-4,31
332,346	-7,31
332,613	-9,31
332,879	-0,31
333,146	-0,31
333,413	5,69
333,679	-4,31
333,946	2,69
334,212	4,69
334,479	2,69
334,745	-10,31
335,012	-3,31
335,278	2,69
335,545	-2,31
335,811	-13,31
336,078	6,69
336,344	-1,31
336,611	3,69
336,877	-7,31
337,144	-2,31
337,41	1,69
337,677	-5,31
337,943	-0,31
338,21	6,69
338,476	0,69
338,742	-0,31
339,009	-3,31
339,275	9,69
339,542	-0,31
339,808	1,69
340,074	0,69
340,341	-7,31
340,607	3,69
340,873	-8,31
341,14	3,69
341,406	-1,31
341,672	-4,31
341,939	1,69
342,205	20,69
342,471	14,69
342,738	0,69
343,004	-6,31
343,27	-1,31
343,537	-0,31
343,803	-3,31
344,069	12,69
344,335	-0,31
344,602	-0,31
344,868	10,69
345,134	8,69
345,4	-8,31
345,666	-10,31
345,933	-7,31
346,199	-5,31
346,465	7,69
346,731	-0,31
346,997	8,69
347,263	-8,31
347,53	2,69
347,796	-7,31
348,062	-4,31
348,328	7,69
348,594	-11,31
348,86	6,69
349,126	-6,31
349,392	0,69
349,659	-0,31
349,925	6,69
350,191	-2,31
350,457	-0,31
350,723	-0,31
350,989	5,69
351,255	-5,31
351,521	0,69
351,787	-4,31
352,053	0,69
352,319	12,69
352,585	1,69
352,851	-0,31
353,117	8,69
353,383	-3,31
353,649	-1,31
353,915	-15,31
354,181	7,69
354,447	5,69
354,713	-8,31
354,978	10,69
355,244	0,69
355,51	-5,31
355,776	10,69
356,042	-0,31
356,308	2,69
356,574	4,69
356,84	-0,31
357,106	2,69
357,371	7,69
357,637	0,69
357,903	6,69
358,169	1,69
358,435	13,69
358,701	-18,31
358,966	-6,31
359,232	4,69
359,498	7,69
359,764	-8,31
360,029	-4,31
360,295	-1,31
360,561	-4,31
360,827	-11,31
361,092	6,69
361,358	-2,31
361,624	3,69
361,89	1,69
362,155	10,69
362,421	-2,31
362,687	8,69
362,952	13,69
363,218	2,69
363,484	-4,31
363,749	2,69
364,015	2,69
364,281	11,69
364,546	-6,31
364,812	-7,31
365,077	-3,31
365,343	-7,31
365,609	2,69
365,874	9,69
366,14	-3,31
366,405	-7,31
366,671	-1,31
366,936	-3,31
367,202	8,69
367,467	9,69
367,733	-3,31
367,999	5,69
368,264	8,69
368,53	4,69
368,795	5,69
369,061	1,69
369,326	5,69
369,591	12,69
369,857	-0,31
370,122	10,69
370,388	-0,31
370,653	4,69
370,919	7,69
371,184	4,69
371,45	-0,31
371,715	6,69
371,98	11,69
372,246	8,69
372,511	-4,31
372,776	4,69
373,042	2,69
373,307	-4,31
373,573	3,69
373,838	9,69
374,103	6,69
374,369	12,69
374,634	-1,31
374,899	-4,31
375,164	10,69
375,43	-3,31
375,695	11,69
375,96	11,69
376,226	-3,31
376,491	5,69
376,756	-3,31
377,021	2,69
377,286	2,69
377,552	13,69
377,817	0,69
378,082	-12,31
378,347	4,69
378,613	6,69
378,878	10,69
379,143	-1,31
379,408	-4,31
379,673	-1,31
379,938	8,69
380,203	-1,31
380,469	4,69
380,734	6,69
380,999	1,69
381,264	3,69
381,529	-14,31
381,794	-1,31
382,059	-9,31
382,324	-0,31
382,589	12,69
382,854	10,69
383,119	0,69
383,385	11,69
383,65	-5,31
383,915	8,69
384,18	-0,31
384,445	5,69
384,71	-3,31
384,975	3,69
385,24	-3,31
385,505	3,69
385,77	5,69
386,034	0,69
386,299	-8,31
386,564	-9,31
386,829	0,69
387,094	6,69
387,359	6,69
387,624	-5,31
387,889	5,69
388,154	9,69
388,419	-2,31
388,684	-6,31
388,949	5,69
389,213	3,69
389,478	1,69
389,743	-4,31
390,008	7,69
390,273	3,69
390,538	0,69
390,802	0,69
391,067	-9,31
391,332	7,69
391,597	-5,31
391,862	-1,31
392,126	0,69
392,391	9,69
392,656	7,69
392,921	7,69
393,185	-1,31
393,45	-5,31
393,715	-1,31
393,979	12,69
394,244	-8,31
394,509	2,69
394,774	7,69
395,038	0,69
395,303	-5,31
395,568	7,69
395,832	7,69
396,097	12,69
396,361	6,69
396,626	-6,31
396,891	14,69
397,155	-1,31
397,42	11,69
397,685	8,69
397,949	11,69
398,214	-4,31
398,478	-4,31
398,743	5,69
399,007	-8,31
399,272	-5,31
399,536	2,69
399,801	-8,31
400,066	-6,31
400,33	-14,31
400,595	-3,31
400,859	7,69
401,124	7,69
401,388	11,69
401,652	-1,31
401,917	5,69
402,181	-6,31
402,446	6,69
402,71	13,69
402,975	-5,31
403,239	8,69
403,504	-3,31
403,768	-2,31
404,032	-5,31
404,297	9,69
404,561	1,69
404,826	8,69
405,09	1,69
405,354	4,69
405,619	6,69
405,883	-1,31
406,147	3,69
406,412	-9,31
406,676	-4,31
406,94	-13,31
407,205	-4,31
407,469	-1,31
407,733	-3,31
407,997	2,69
408,262	14,69
408,526	5,69
408,79	-3,31
409,054	0,69
409,319	4,69
409,583	-0,31
409,847	6,69
410,111	-10,31
410,375	7,69
410,64	7,69
410,904	3,69
411,168	4,69
411,432	-0,31
411,696	-10,31
411,96	9,69
412,225	6,69
412,489	1,69
412,753	3,69
413,017	9,69
413,281	14,69
413,545	14,69
413,809	6,69
414,073	-2,31
414,337	0,69
414,602	3,69
414,866	2,69
415,13	4,69
415,394	5,69
415,658	27,69
415,922	14,69
416,186	8,69
416,45	-0,31
416,714	18,69
416,978	17,69
417,242	-3,31
417,506	1,69
417,77	6,69
418,034	16,69
418,298	6,69
418,562	15,69
418,825	17,69
419,089	7,69
419,353	18,69
419,617	15,69
419,881	18,69
420,145	27,69
420,409	25,69
420,673	13,69
420,937	22,69
421,2	30,69
421,464	27,69
421,728	33,69
421,992	23,69
422,256	32,69
422,52	35,69
422,783	31,69
423,047	30,69
423,311	49,69
423,575	33,69
423,839	38,69
424,102	47,69
424,366	48,69
424,63	48,69
424,894	55,69
425,157	52,69
425,421	53,69
425,685	45,69
425,949	55,69
426,212	77,69
426,476	55,69
426,74	54,69
427,003	69,69
427,267	51,69
427,531	82,69
427,794	93,69
428,058	75,69
428,322	77,69
428,585	91,69
428,849	81,69
429,112	94,69
429,376	97,69
429,64	109,69
429,903	111,69
430,167	98,69
430,43	120,69
430,694	129,69
430,957	116,69
431,221	117,69
431,485	131,69
431,748	140,69
432,012	143,69
432,275	126,69
432,539	154,69
432,802	178,69
433,066	163,69
433,329	162,69
433,593	183,69
433,856	169,69
434,119	186,69
434,383	175,69
434,646	193,69
434,91	206,69
435,173	225,69
435,437	223,69
435,7	223,69
435,963	230,69
436,227	219,69
436,49	255,69
436,753	252,69
437,017	255,69
437,28	268,69
437,544	267,69
437,807	268,69
438,07	284,69
438,334	288,69
438,597	294,69
438,86	301,69
439,123	319,69
439,387	318,69
439,65	332,69
439,913	361,69
440,177	336,69
440,44	367,69
440,703	368,69
440,966	363,69
441,229	399,69
441,493	385,69
441,756	423,69
442,019	423,69
442,282	423,69
442,545	439,69
442,809	455,69
443,072	456,69
443,335	496,69
443,598	502,69
443,861	500,69
444,124	492,69
444,388	521,69
444,651	554,69
444,914	532,69
445,177	580,69
445,44	585,69
445,703	590,69
445,966	598,69
446,229	612,69
446,492	626,69
446,755	680,69
447,018	673,69
447,281	705,69
447,544	726,69
447,807	750,69
448,07	773,69
448,333	729,69
448,596	802,69
448,859	798,69
449,122	823,69
449,385	817,69
449,648	864,69
449,911	894,69
450,174	912,69
450,437	920,69
450,7	928,69
450,963	929,69
451,226	970,69
451,489	966,69
451,752	955,69
452,015	985,69
452,277	975,69
452,54	996,69
452,803	1018,69
453,066	979,69
453,329	1013,69
453,592	1012,69
453,855	1010,69
454,117	1048,69
454,38	1010,69
454,643	1028,69
454,906	1031,69
455,169	982,69
455,431	1005,69
455,694	996,69
455,957	965,69
456,22	990,69
456,482	940,69
456,745	911,69
457,008	955,69
457,271	928,69
457,533	892,69
457,796	886,69
458,059	851,69
458,321	814,69
458,584	790,69
458,847	766,69
459,109	739,69
459,372	750,69
459,635	711,69
459,897	669,69
460,16	697,69
460,423	642,69
460,685	594,69
460,948	601,69
461,21	594,69
461,473	553,69
461,735	514,69
461,998	500,69
462,261	475,69
462,523	491,69
462,786	464,69
463,048	432,69
463,311	411,69
463,573	404,69
463,836	381,69
464,098	353,69
464,361	328,69
464,623	324,69
464,886	314,69
465,148	309,69
465,411	309,69
465,673	304,69
465,936	276,69
466,198	280,69
466,46	255,69
466,723	254,69
466,985	229,69
467,248	233,69
467,51	231,69
467,772	226,69
468,035	225,69
468,297	207,69
468,56	201,69
468,822	183,69
469,084	178,69
469,347	170,69
469,609	167,69
469,871	174,69
470,133	165,69
470,396	160,69
470,658	155,69
470,92	150,69
471,183	141,69
471,445	131,69
471,707	129,69
471,969	127,69
472,232	119,69
472,494	119,69
472,756	123,69
473,018	103,69
473,281	109,69
473,543	89,69
473,805	94,69
474,067	86,69
474,329	73,69
474,591	86,69
474,854	89,69
475,116	81,69
475,378	73,69
475,64	62,69
475,902	72,69
476,164	73,69
476,426	59,69
476,688	46,69
476,951	65,69
477,213	57,69
477,475	44,69
477,737	52,69
477,999	38,69
478,261	34,69
478,523	43,69
478,785	39,69
479,047	34,69
479,309	38,69
479,571	32,69
479,833	17,69
480,095	36,69
480,357	22,69
480,619	22,69
480,881	14,69
481,143	24,69
481,405	23,69
481,667	22,69
481,929	23,69
482,191	15,69
482,452	8,69
482,714	18,69
482,976	22,69
483,238	23,69
483,5	22,69
483,762	24,69
484,024	11,69
484,286	3,69
484,547	14,69
484,809	24,69
485,071	8,69
485,333	11,69
485,595	18,69
485,857	0,69
486,118	9,69
486,38	-1,31
486,642	1,69
486,904	12,69
487,165	7,69
487,427	5,69
487,689	22,69
487,951	26,69
488,212	11,69
488,474	4,69
488,736	0,69
488,998	16,69
489,259	3,69
489,521	1,69
489,783	7,69
490,044	1,69
490,306	13,69
490,568	19,69
490,829	7,69
491,091	0,69
491,353	-3,31
491,614	-3,31
491,876	3,69
492,137	1,69
492,399	11,69
492,661	-0,31
492,922	1,69
493,184	7,69
493,445	1,69
493,707	7,69
493,968	19,69
494,23	13,69
494,491	17,69
494,753	0,69
495,014	13,69
495,276	-3,31
495,537	-11,31
495,799	-11,31
496,06	7,69
496,322	5,69
496,583	3,69
496,845	-14,31
497,106	8,69
497,368	8,69
497,629	-1,31
497,89	-1,31
498,152	5,69
498,413	0,69
498,675	13,69
498,936	-18,31
499,197	-10,31
499,459	5,69
499,72	1,69
499,981	9,69
500,243	23,69
500,504	-8,31
500,765	2,69
501,027	13,69
501,288	14,69
501,549	13,69
501,811	-4,31
502,072	13,69
502,333	11,69
502,594	12,69
502,856	-1,31
503,117	-0,31
503,378	9,69
503,639	8,69
503,901	1,69
504,162	7,69
504,423	1,69
504,684	-2,31
504,945	-7,31
505,207	-5,31
505,468	5,69
505,729	-9,31
505,99	-1,31
506,251	-1,31
506,512	-5,31
506,774	1,69
507,035	0,69
507,296	-0,31
507,557	-0,31
507,818	8,69
508,079	9,69
508,34	-8,31
508,601	-5,31
508,862	-6,31
509,123	8,69
509,384	1,69
509,645	8,69
509,906	6,69
510,167	8,69
510,428	3,69
510,689	9,69
510,95	-6,31
511,211	-4,31
511,472	15,69
511,733	2,69
511,994	13,69
512,255	4,69
512,516	4,69
512,777	7,69
513,038	7,69
513,299	-14,31
513,56	-7,31
513,821	-2,31
514,082	0,69
514,343	-2,31
514,603	-8,31
514,864	-9,31
515,125	0,69
515,386	-1,31
515,647	-12,31
515,908	-2,31
516,169	11,69
516,429	12,69
516,69	11,69
516,951	9,69
517,212	-5,31
517,473	-3,31
517,733	5,69
517,994	6,69
518,255	0,69
518,516	0,69
518,776	7,69
519,037	6,69
519,298	5,69
519,559	-2,31
519,819	-0,31
520,08	7,69
520,341	-8,31
520,601	-0,31
520,862	-2,31
521,123	-1,31
521,383	-2,31
521,644	2,69
521,905	7,69
522,165	22,69
522,426	5,69
522,686	1,69
522,947	-16,31
523,208	-0,31
523,468	15,69
523,729	4,69
523,989	2,69
524,25	3,69
524,51	14,69
524,771	22,69
525,032	3,69
525,292	3,69
525,553	2,69
525,813	-3,31
526,074	-3,31
526,334	7,69
526,595	-2,31
526,855	-2,31
527,116	-5,31
527,376	2,69
527,636	-6,31
527,897	-1,31
528,157	3,69
528,418	3,69
528,678	8,69
528,939	-2,31
529,199	2,69
529,459	7,69
529,72	9,69
529,98	7,69
530,24	1,69
530,501	-3,31
530,761	5,69
531,022	15,69
531,282	-3,31
531,542	9,69
531,803	6,69
532,063	-8,31
532,323	2,69
532,583	3,69
532,844	-10,31
533,104	5,69
533,364	16,69
533,624	2,69
533,885	3,69
534,145	-2,31
534,405	-0,31
534,665	0,69
534,926	-16,31
535,186	-12,31
535,446	1,69
535,706	9,69
535,966	-3,31
536,227	10,69
536,487	3,69
536,747	-5,31
537,007	9,69
537,267	1,69
537,527	2,69
537,787	0,69
538,048	11,69
538,308	-1,31
538,568	-3,31
538,828	6,69
539,088	-2,31
539,348	-1,31
539,608	5,69
539,868	6,69
540,128	3,69
540,388	0,69
540,648	2,69
540,908	7,69
541,168	7,69
541,428	-7,31
541,688	-8,31
541,948	12,69
542,208	-2,31
542,468	-12,31
542,728	-0,31
542,988	7,69
543,248	0,69
543,508	8,69
543,768	6,69
544,028	10,69
544,288	15,69
544,548	7,69
544,807	7,69
545,067	-6,31
545,327	-2,31
545,587	-2,31
545,847	8,69
546,107	0,69
546,367	10,69
546,626	-5,31
546,886	-0,31
547,146	7,69
547,406	-1,31
547,666	10,69
547,925	-9,31
548,185	-0,31
548,445	10,69
548,705	8,69
548,965	-8,31
549,224	-4,31
549,484	-2,31
549,744	9,69
550,003	0,69
550,263	-4,31
550,523	-11,31
550,783	0,69
551,042	6,69
551,302	6,69
551,562	-2,31
551,821	14,69
552,081	6,69
552,341	-1,31
552,6	14,69
552,86	15,69
553,119	16,69
553,379	18,69
553,639	10,69
553,898	-9,31
554,158	-13,31
554,417	-18,31
554,677	1,69
554,936	10,69
555,196	2,69
555,456	-2,31
555,715	0,69
555,975	-1,31
556,234	-5,31
556,494	-0,31
556,753	7,69
557,013	-4,31
557,272	7,69
557,532	15,69
557,791	10,69
558,051	12,69
558,31	4,69
558,569	0,69
558,829	-1,31
559,088	-2,31
559,348	-4,31
559,607	-1,31
559,866	6,69
560,126	0,69
560,385	-13,31
560,645	-7,31
560,904	4,69
561,163	10,69
561,423	-6,31
561,682	-8,31
561,941	3,69
562,201	1,69
562,46	3,69
562,719	13,69
562,979	1,69
563,238	4,69
563,497	9,69
563,756	9,69
564,016	0,69
564,275	7,69
564,534	8,69
564,793	-0,31
565,053	-2,31
565,312	-5,31
565,571	1,69
565,83	14,69
566,089	0,69
566,349	15,69
566,608	-0,31
566,867	7,69
567,126	0,69
567,385	1,69
567,644	-1,31
567,903	2,69
568,163	-0,31
568,422	-1,31
568,681	5,69
568,94	11,69
569,199	4,69
569,458	-0,31
569,717	1,69
569,976	-3,31
570,235	7,69
570,494	-0,31
570,753	7,69
571,012	3,69
571,271	-2,31
571,53	-8,31
571,789	8,69
572,048	-4,31
572,307	14,69
572,566	7,69
572,825	4,69
573,084	-1,31
573,343	14,69
573,602	11,69
573,861	6,69
574,12	-4,31
574,379	-4,31
574,638	1,69
574,897	-5,31
575,156	0,69
575,414	11,69
575,673	4,69
575,932	0,69
576,191	2,69
576,45	2,69
576,709	7,69
576,968	7,69
577,226	7,69
577,485	10,69
577,744	-6,31
578,003	7,69
578,262	3,69
578,52	11,69
578,779	11,69
579,038	14,69
579,297	18,69
579,555	-7,31
579,814	2,69
580,073	-11,31
580,332	-0,31
580,59	9,69
580,849	7,69
581,108	-1,31
581,366	-3,31
581,625	-1,31
581,884	11,69
582,142	-7,31
582,401	14,69
582,66	7,69
582,918	6,69
583,177	0,69
583,436	8,69
583,694	10,69
583,953	-0,31
584,211	2,69
584,47	15,69
584,728	10,69
584,987	12,69
585,246	-0,31
585,504	7,69
585,763	-2,31
586,021	11,69
586,28	8,69
586,538	-1,31
586,797	0,69
587,055	0,69
587,314	8,69
587,572	1,69
587,831	20,69
588,089	4,69
588,348	13,69
588,606	9,69
588,864	1,69
589,123	9,69
589,381	-0,31
589,64	-2,31
589,898	6,69
590,157	24,69
590,415	4,69
590,673	2,69
590,932	2,69
591,19	3,69
591,448	5,69
591,707	5,69
591,965	1,69
592,223	4,69
592,482	9,69
592,74	7,69
592,998	-2,31
593,257	6,69
593,515	15,69
593,773	11,69
594,031	10,69
594,29	5,69
594,548	-10,31
594,806	1,69
595,064	6,69
595,323	2,69
595,581	21,69
595,839	2,69
596,097	5,69
596,355	4,69
596,613	20,69
596,872	5,69
597,13	17,69
597,388	-4,31
597,646	5,69
597,904	7,69
598,162	12,69
598,42	-2,31
598,679	-2,31
598,937	1,69
599,195	2,69
599,453	13,69
599,711	6,69
599,969	3,69
600,227	-2,31
600,485	3,69
600,743	11,69
601,001	7,69
601,259	-8,31
601,517	-1,31
601,775	9,69
602,033	0,69
602,291	8,69
602,549	6,69
602,807	2,69
603,065	8,69
603,323	4,69
603,581	4,69
603,839	14,69
604,097	9,69
604,355	-1,31
604,613	0,69
604,871	-3,31
605,128	9,69
605,386	-6,31
605,644	18,69
605,902	13,69
606,16	8,69
606,418	10,69
606,676	6,69
606,933	2,69
607,191	1,69
607,449	-5,31
607,707	5,69
607,965	-3,31
608,223	0,69
608,48	-2,31
608,738	6,69
608,996	-1,31
609,254	-2,31
609,511	22,69
609,769	-2,31
610,027	-1,31
610,285	-0,31
610,542	-0,31
610,8	16,69
611,058	17,69
611,315	8,69
611,573	5,69
611,831	-3,31
612,088	8,69
612,346	8,69
612,604	9,69
612,861	11,69
613,119	1,69
613,376	0,69
613,634	6,69
613,892	-8,31
614,149	-0,31
614,407	2,69
614,664	0,69
614,922	-2,31
615,18	5,69
615,437	1,69
615,695	2,69
615,952	3,69
616,21	9,69
616,467	-1,31
616,725	5,69
616,982	5,69
617,24	0,69
617,497	7,69
617,755	11,69
618,012	7,69
618,27	8,69
618,527	9,69
618,784	14,69
619,042	-0,31
619,299	9,69
619,557	7,69
619,814	-0,31
620,071	20,69
620,329	1,69
620,586	11,69
620,844	-1,31
621,101	5,69
621,358	0,69
621,616	2,69
621,873	10,69
622,13	3,69
622,388	6,69
622,645	16,69
622,902	6,69
623,159	-5,31
623,417	-4,31
623,674	16,69
623,931	10,69
624,188	1,69
624,446	13,69
624,703	11,69
624,96	10,69
625,217	17,69
625,475	11,69
625,732	1,69
625,989	4,69
626,246	-0,31
626,503	-10,31
626,761	10,69
627,018	-9,31
627,275	10,69
627,532	7,69
627,789	4,69
628,046	2,69
628,303	2,69
628,56	3,69
628,818	-3,31
629,075	-2,31
629,332	-3,31
629,589	10,69
629,846	11,69
630,103	5,69
630,36	19,69
630,617	3,69
630,874	11,69
631,131	-2,31
631,388	-0,31
631,645	11,69
631,902	3,69
632,159	12,69
632,416	3,69
632,673	1,69
632,93	-4,31
633,187	-8,31
633,444	2,69
633,701	8,69
633,958	-4,31
634,215	-6,31
634,471	8,69
634,728	8,69
634,985	6,69
635,242	17,69
635,499	-0,31
635,756	-8,31
636,013	5,69
636,27	1,69
636,526	1,69
636,783	-0,31
637,04	6,69
637,297	1,69
637,554	2,69
637,81	7,69
638,067	5,69
638,324	1,69
638,581	-1,31
638,838	-1,31
639,094	4,69
639,351	6,69
639,608	2,69
639,864	-5,31
640,121	-2,31
640,378	2,69
640,635	-8,31
640,891	-1,31
641,148	-6,31
641,405	6,69
641,661	-0,31
641,918	6,69
642,175	13,69
642,431	-3,31
642,688	-2,31
642,944	5,69
643,201	8,69
643,458	-8,31
643,714	5,69
643,971	-2,31
644,227	3,69
644,484	-4,31
644,741	-2,31
644,997	2,69
645,254	1,69
645,51	0,69
645,767	5,69
646,023	-2,31
646,28	1,69
646,536	7,69
646,793	7,69
647,049	10,69
647,306	8,69
647,562	15,69
647,819	1,69
648,075	5,69
648,331	11,69
648,588	4,69
648,844	1,69
649,101	-6,31
649,357	7,69
649,613	2,69
649,87	5,69
650,126	-1,31
650,383	5,69
650,639	16,69
650,895	-0,31
651,152	-0,31
651,408	2,69
651,664	-3,31
651,921	11,69
652,177	-5,31
652,433	-3,31
652,689	-4,31
652,946	-0,31
653,202	0,69
653,458	1,69
653,715	5,69
653,971	-0,31
654,227	1,69
654,483	8,69
654,739	-4,31
654,996	3,69
655,252	4,69
655,508	10,69
655,764	-0,31
656,02	-0,31
656,277	-9,31
656,533	6,69
656,789	9,69
657,045	4,69
657,301	8,69
657,557	5,69
657,813	5,69
658,07	4,69
658,326	4,69
658,582	2,69
658,838	-0,31
659,094	9,69
659,35	11,69
659,606	1,69
659,862	13,69
660,118	-3,31
660,374	10,69
660,63	6,69
660,886	3,69
661,142	-7,31
661,398	5,69
661,654	4,69
661,91	-5,31
662,166	-3,31
662,422	5,69
662,678	14,69
662,934	-2,31
663,19	-5,31
663,446	2,69
663,702	-7,31
663,957	1,69
664,213	6,69
664,469	7,69
664,725	0,69
664,981	-9,31
665,237	-8,31
665,493	1,69
665,749	14,69
666,004	10,69
666,26	7,69
666,516	9,69
666,772	8,69
667,028	4,69
667,283	16,69
667,539	2,69
667,795	-11,31
668,051	-2,31
668,307	20,69
668,562	-0,31
668,818	2,69
669,074	-8,31
669,329	-2,31
669,585	-3,31
669,841	-1,31
670,097	3,69
670,352	5,69
670,608	5,69
670,864	-3,31
671,119	-0,31
671,375	-1,31
671,631	0,69
671,886	5,69
672,142	8,69
672,397	5,69
672,653	5,69
672,909	12,69
673,164	-9,31
673,42	5,69
673,675	7,69
673,931	16,69
674,186	5,69
674,442	2,69
674,698	-1,31
674,953	-2,31
675,209	-9,31
675,464	-4,31
675,72	-1,31
675,975	-1,31
676,231	-11,31
676,486	-5,31
676,742	-1,31
676,997	-0,31
677,252	-6,31
677,508	-5,31
677,763	8,69
678,019	6,69
678,274	1,69
678,53	1,69
678,785	-2,31
679,04	11,69
679,296	3,69
679,551	5,69
679,806	-14,31
680,062	10,69
680,317	4,69
680,572	11,69
680,828	-3,31
681,083	-3,31
681,338	-1,31
681,594	2,69
681,849	-3,31
682,104	-1,31
682,36	12,69
682,615	-0,31
682,87	2,69
683,125	-2,31
683,381	2,69
683,636	-6,31
683,891	3,69
684,146	-13,31
684,401	-7,31
684,657	-4,31
684,912	2,69
685,167	-5,31
685,422	-11,31
685,677	-2,31
685,932	1,69
686,188	-0,31
686,443	-0,31
686,698	1,69
686,953	7,69
687,208	-5,31
687,463	9,69
687,718	8,69
687,973	-12,31
688,228	-12,31
688,483	10,69
688,739	-5,31
688,994	9,69
689,249	11,69
689,504	8,69
689,759	9,69
690,014	11,69
690,269	-5,31
690,524	-2,31
690,779	1,69
691,034	-9,31
691,289	7,69
691,544	-4,31
691,798	-3,31
692,053	15,69
692,308	-0,31
692,563	4,69
692,818	5,69
693,073	-0,31
693,328	-3,31
693,583	-5,31
693,838	4,69
694,093	3,69
694,347	1,69
694,602	10,69
694,857	-6,31
695,112	1,69
695,367	8,69
695,622	7,69
695,876	-1,31
696,131	-1,31
696,386	-2,31
696,641	-9,31
696,896	-4,31
697,15	-1,31
697,405	3,69
697,66	1,69
697,915	-5,31
698,169	7,69
698,424	-1,31
698,679	3,69
698,933	8,69
699,188	6,69
699,443	4,69
699,698	-3,31
699,952	2,69
700,207	14,69
700,461	11,69
700,716	-9,31
700,971	-3,31
701,225	-4,31
701,48	0,69
701,735	13,69
701,989	-11,31
702,244	2,69
702,498	-0,31
702,753	-6,31
703,007	3,69
703,262	6,69
703,517	6,69
703,771	9,69
704,026	11,69
704,28	2,69
704,535	5,69
704,789	1,69
705,044	1,69
705,298	-6,31
705,553	10,69
705,807	-0,31
706,062	5,69
706,316	4,69
706,57	0,69
706,825	6,69
707,079	14,69
707,334	8,69
707,588	-3,31
707,842	15,69
708,097	4,69
708,351	10,69
708,606	11,69
708,86	8,69
709,114	20,69
709,369	18,69
709,623	18,69
709,877	5,69
710,132	7,69
710,386	18,69
710,64	15,69
710,895	13,69
711,149	25,69
711,403	-4,31
711,657	14,69
711,912	13,69
712,166	21,69
712,42	9,69
712,674	16,69
712,928	22,69
713,183	23,69
713,437	7,69
713,691	16,69
713,945	2,69
714,199	8,69
714,454	8,69
714,708	11,69
714,962	1,69
715,216	7,69
715,47	17,69
715,724	-2,31
715,978	-2,31
716,233	19,69
716,487	16,69
716,741	9,69
716,995	2,69
717,249	3,69
717,503	0,69
717,757	10,69
718,011	14,69
718,265	25,69
718,519	13,69
718,773	12,69
719,027	1,69
719,281	20,69
719,535	3,69
719,789	-1,31
720,043	5,69
720,297	14,69
720,551	-1,31
720,805	7,69
721,059	15,69
721,313	-0,31
721,567	-5,31
721,821	5,69
722,074	6,69
722,328	-4,31
722,582	5,69
722,836	15,69
723,09	12,69
723,344	0,69
723,598	15,69
723,851	17,69
724,105	7,69
724,359	14,69
724,613	15,69
724,867	18,69
725,121	3,69
725,374	9,69
725,628	15,69
725,882	16,69
726,136	9,69
726,389	9,69
726,643	6,69
726,897	4,69
727,151	13,69
727,404	15,69
727,658	10,69
727,912	16,69
728,165	32,69
728,419	25,69
728,673	11,69
728,926	1,69
729,18	12,69
729,434	8,69
729,687	21,69
729,941	6,69
730,195	-9,31
730,448	14,69
730,702	8,69
730,955	9,69
731,209	17,69
731,462	9,69
731,716	13,69
731,97	0,69
732,223	21,69
732,477	5,69
732,73	-1,31
732,984	-10,31
733,237	-6,31
733,491	6,69
733,744	1,69
733,998	-6,31
734,251	-3,31
734,505	1,69
734,758	14,69
735,012	11,69
735,265	13,69
735,518	19,69
735,772	14,69
736,025	11,69
736,279	-2,31
736,532	3,69
736,785	5,69
737,039	4,69
737,292	15,69
737,546	1,69
737,799	2,69
738,052	13,69
738,306	2,69
738,559	-6,31
738,812	-2,31
739,066	-1,31
739,319	13,69
739,572	11,69
739,825	12,69
740,079	-1,31
740,332	4,69
740,585	-4,31
740,838	-3,31
741,092	-13,31
741,345	0,69
741,598	-1,31
741,851	2,69
742,104	7,69
742,358	-2,31
742,611	-13,31
742,864	-1,31
743,117	10,69
743,37	8,69
743,623	12,69
743,877	6,69
744,13	2,69
744,383	6,69
744,636	18,69
744,889	7,69
745,142	19,69
745,395	12,69
745,648	3,69
745,901	10,69
746,154	3,69
746,408	5,69
746,661	4,69
746,914	-2,31
747,167	1,69
747,42	11,69
747,673	5,69
747,926	-0,31
748,179	8,69
748,432	5,69
748,685	10,69
748,938	15,69
749,19	17,69
749,443	18,69
749,696	1,69
749,949	0,69
750,202	9,69
750,455	-1,31
750,708	-2,31
750,961	-0,31
751,214	10,69
751,467	5,69
751,719	2,69
751,972	3,69
752,225	11,69
752,478	11,69
752,731	5,69
752,984	2,69
753,236	10,69
753,489	2,69
753,742	6,69
753,995	4,69
754,248	5,69
754,5	-4,31
754,753	0,69
755,006	0,69
755,259	10,69
755,511	0,69
755,764	0,69
756,017	-2,31
756,269	7,69
756,522	-3,31
756,775	0,69
757,027	1,69
757,28	-9,31
757,533	-1,31
757,785	8,69
758,038	5,69
758,291	-6,31
758,543	-3,31
758,796	13,69
759,049	-0,31
759,301	1,69
759,554	8,69
759,806	9,69
760,059	-7,31
760,311	13,69
760,564	-3,31
760,817	0,69
761,069	-11,31
761,322	-2,31
761,574	-0,31
761,827	7,69
762,079	1,69
762,332	2,69
762,584	-5,31
762,837	6,69
763,089	-2,31
763,341	13,69
763,594	1,69
763,846	3,69
764,099	-3,31
764,351	7,69
764,604	11,69
764,856	-1,31
765,108	3,69
765,361	7,69
765,613	-1,31
765,865	-14,31
766,118	-1,31
766,37	0,69
766,623	-5,31
766,875	0,69
767,127	3,69
767,379	1,69
767,632	-12,31
767,884	4,69
768,136	0,69
768,389	2,69
768,641	2,69
768,893	4,69
769,145	7,69
769,398	1,69
769,65	8,69
769,902	14,69
770,154	6,69
770,406	4,69
770,659	17,69
770,911	5,69
771,163	1,69
771,415	-0,31
771,667	2,69
771,919	-5,31
772,172	7,69
772,424	14,69
772,676	-3,31
772,928	-1,31
773,18	-1,31
773,432	6,69
773,684	-2,31
773,936	10,69
774,188	7,69
774,44	-8,31
774,693	5,69
774,945	6,69
775,197	-7,31
775,449	-6,31
775,701	8,69
775,953	2,69
776,205	0,69
776,457	7,69
776,709	-5,31
776,961	-3,31
777,213	7,69
777,464	7,69
777,716	-6,31
777,968	-3,31
778,22	0,69
778,472	6,69
778,724	3,69
778,976	-10,31
779,228	0,69
779,48	1,69
779,732	-3,31
779,984	-5,31
780,235	5,69
780,487	-9,31
780,739	-8,31
780,991	8,69
781,243	-13,31
781,494	-2,31
781,746	6,69
781,998	-0,31
782,25	-2,31
782,502	6,69
782,753	5,69
783,005	-1,31
783,257	5,69
783,509	-3,31
783,76	-0,31
784,012	5,69
784,264	5,69
784,515	1,69
784,767	16,69
785,019	-3,31
785,271	-6,31
785,522	0,69
785,774	-3,31
786,026	6,69
786,277	2,69
786,529	3,69
786,78	11,69
787,032	7,69
787,284	-4,31
787,535	5,69
787,787	-6,31
788,038	-10,31
788,29	1,69
788,541	-1,31
788,793	-10,31
789,045	-3,31
789,296	-6,31
789,548	-8,31
789,799	-7,31
790,051	8,69
790,302	-2,31
790,554	6,69
790,805	-1,31
791,057	8,69
791,308	6,69
791,559	-5,31
791,811	-2,31
792,062	8,69
792,314	20,69
792,565	0,69
792,817	-9,31
793,068	1,69
793,319	3,69
793,571	9,69
793,822	3,69
794,073	3,69
794,325	1,69
794,576	3,69
794,827	-0,31
795,079	8,69
795,33	3,69
795,581	-4,31
795,833	-0,31
796,084	-0,31
796,335	5,69
796,587	14,69
796,838	5,69
797,089	6,69
797,34	-5,31
797,592	-2,31
797,843	-4,31
798,094	-4,31
798,345	-12,31
798,596	-1,31
798,848	-9,31
799,099	-1,31
799,35	0,69
799,601	1,69
799,852	6,69
800,103	-0,31
800,355	-2,31
800,606	21,69
800,857	9,69
801,108	7,69
801,359	0,69
801,61	7,69
801,861	1,69
802,112	1,69
802,363	-2,31
802,614	2,69
802,865	8,69
803,116	2,69
803,367	3,69
803,618	5,69
803,869	-4,31
804,12	-12,31
804,371	-4,31
804,622	-14,31
804,873	-8,31
805,124	2,69
805,375	-2,31
805,626	4,69
805,877	-0,31
806,128	9,69
806,379	-7,31
806,63	0,69
806,881	6,69
807,132	1,69
807,383	-17,31
807,634	5,69
807,884	0,69
808,135	14,69
808,386	-10,31
808,637	11,69
808,888	-9,31
809,139	-7,31
809,389	-2,31
809,64	-0,31
809,891	-1,31
810,142	4,69
810,393	-6,31
810,643	-0,31
810,894	-8,31
811,145	-6,31
811,396	6,69
811,646	1,69
811,897	6,69
812,148	1,69
812,398	5,69
812,649	2,69
812,9	0,69
813,151	1,69
813,401	9,69
813,652	15,69
813,902	21,69
814,153	1,69
814,404	-2,31
814,654	6,69
814,905	0,69
815,156	2,69
815,406	-1,31
815,657	9,69
815,907	2,69
816,158	-0,31
816,408	4,69
816,659	11,69
816,91	-0,31
817,16	5,69
817,411	10,69
817,661	-2,31
817,912	-1,31
818,162	-8,31
818,413	-5,31
818,663	-0,31
818,914	6,69
819,164	-5,31
819,414	-2,31
819,665	-4,31
819,915	-2,31
820,166	-1,31
820,416	-4,31
820,667	6,69
820,917	0,69
821,167	-3,31
821,418	-3,31
821,668	9,69
821,918	11,69
822,169	7,69
822,419	-0,31
822,67	0,69
822,92	-9,31
823,17	2,69
823,42	3,69
823,671	1,69
823,921	7,69
824,171	-6,31
824,422	9,69
824,672	2,69
824,922	0,69
825,172	1,69
825,423	-5,31
825,673	-0,31
825,923	7,69
826,173	3,69
826,423	5,69
826,674	5,69
826,924	-2,31
827,174	-10,31
827,424	2,69
827,674	9,69
827,924	7,69
828,175	-4,31
828,425	4,69
828,675	-4,31
828,925	8,69
829,175	7,69
829,425	-0,31
829,675	15,69
829,925	-1,31
830,175	5,69
830,425	-7,31
830,675	0,69
830,925	-0,31
831,175	7,69
831,425	-7,31
831,676	5,69
831,926	-11,31
832,175	-4,31
832,425	3,69
832,675	-7,31
832,925	9,69
833,175	7,69
833,425	15,69
833,675	14,69
833,925	1,69
834,175	5,69
834,425	5,69
834,675	5,69
834,925	10,69
835,175	8,69
835,425	-4,31
835,674	6,69
835,924	4,69
836,174	-4,31
836,424	1,69
836,674	-11,31
836,924	-6,31
837,173	4,69
837,423	8,69
837,673	8,69
837,923	-2,31
838,173	2,69
838,422	9,69
838,672	2,69
838,922	7,69
839,172	2,69
839,421	-1,31
839,671	2,69
839,921	2,69
840,17	7,69
840,42	6,69
840,67	3,69
840,919	2,69
841,169	8,69
841,419	-5,31
841,668	3,69
841,918	-2,31
842,168	-10,31
842,417	-0,31
842,667	-5,31
842,916	-6,31
843,166	-7,31
843,416	-4,31
843,665	3,69
843,915	-7,31
844,164	6,69
844,414	15,69
844,663	-2,31
844,913	2,69
845,162	4,69
845,412	-8,31
845,662	-5,31
845,911	13,69
846,16	3,69
846,41	14,69
846,659	3,69
846,909	1,69
847,158	6,69
847,408	7,69
847,657	11,69
847,907	3,69
848,156	2,69
848,405	10,69
848,655	-9,31
848,904	-2,31
849,154	-2,31
849,403	-1,31
849,652	0,69
849,902	-4,31
850,151	2,69
850,4	4,69
850,65	4,69
850,899	-1,31
851,148	2,69
851,398	1,69
851,647	-0,31
851,896	11,69
852,145	11,69
852,395	7,69
852,644	10,69
852,893	15,69
853,142	8,69
853,392	8,69
853,641	10,69
853,89	3,69
854,139	-4,31
854,388	11,69
854,637	3,69
854,887	-3,31
855,136	-2,31
855,385	1,69
855,634	1,69
855,883	0,69
856,132	1,69
856,381	1,69
856,631	15,69
856,88	0,69
857,129	-0,31
857,378	8,69
857,627	8,69
857,876	-0,31
858,125	-4,31
858,374	4,69
858,623	27,69
858,872	3,69
859,121	-0,31
859,37	12,69
859,619	-3,31
859,868	-4,31
860,117	12,69
860,366	5,69
860,615	8,69
860,864	15,69
861,113	7,69
861,362	22,69
861,611	10,69
861,86	-4,31
862,108	1,69
862,357	-1,31
862,606	-2,31
862,855	7,69
863,104	-2,31
863,353	-1,31
863,602	9,69
863,851	26,69
864,099	11,69
864,348	-2,31
864,597	4,69
864,846	8,69
865,095	3,69
865,343	6,69
865,592	-6,31
865,841	3,69
866,09	11,69
866,338	7,69
866,587	4,69
866,836	-1,31
867,085	-0,31
867,333	7,69
867,582	-6,31
867,831	-1,31
868,079	3,69
868,328	7,69
868,577	3,69
868,825	-12,31
869,074	-6,31
869,323	-0,31
869,571	-6,31
869,82	1,69
870,068	9,69
870,317	6,69
870,566	-0,31
870,814	1,69
871,063	-1,31
871,311	6,69
871,56	12,69
871,808	9,69
872,057	5,69
872,306	-4,31
872,554	-0,31
872,803	-4,31
873,051	1,69
873,3	9,69
873,548	9,69
873,797	-0,31
874,045	-11,31
874,293	-0,31
874,542	3,69
874,79	-6,31
875,039	-5,31
875,287	3,69
875,536	-3,31
875,784	13,69
876,032	6,69
876,281	-8,31
876,529	1,69
876,777	-0,31
877,026	-2,31
877,274	-11,31
877,523	-1,31
877,771	4,69
878,019	7,69
878,267	-1,31
878,516	-4,31
878,764	2,69
879,012	6,69
879,261	-1,31
879,509	-0,31
879,757	-3,31
880,005	-0,31
880,254	6,69
880,502	10,69
880,75	-11,31
880,998	6,69
881,246	5,69
881,495	5,69
881,743	-8,31
881,991	11,69
882,239	3,69
882,487	7,69
882,735	3,69
882,984	-1,31
883,232	3,69
883,48	6,69
883,728	8,69
883,976	4,69
884,224	9,69
884,472	7,69
884,72	5,69
884,968	10,69
885,216	6,69
885,464	-13,31
885,712	-2,31
885,96	3,69
886,208	2,69
886,457	-7,31
886,704	-1,31
886,952	0,69
887,2	2,69
887,448	8,69
887,696	6,69
887,944	3,69
888,192	-2,31
888,44	1,69
888,688	-4,31
888,936	-4,31
889,184	-5,31
889,432	1,69
889,68	-7,31
889,928	-1,31
890,175	-3,31
890,423	6,69
890,671	-2,31
890,919	3,69
891,167	0,69
891,415	6,69
891,663	17,69
891,91	-15,31
892,158	5,69
892,406	4,69
892,654	-5,31
892,901	3,69
893,149	5,69
893,397	-3,31
893,645	11,69
893,892	9,69
894,14	-12,31
894,388	-8,31
894,636	-12,31
894,883	-9,31
895,131	-4,31
895,379	6,69
895,626	14,69
895,874	-12,31
896,122	5,69
896,369	1,69
896,617	-2,31
896,864	-5,31
897,112	1,69
897,36	-5,31
897,607	3,69
897,855	1,69
898,102	1,69
898,35	1,69
898,598	1,69
898,845	-0,31
899,093	-7,31
899,34	-1,31
899,588	0,69
899,835	-4,31
900,083	-8,31
900,33	-5,31
900,578	7,69
900,825	2,69
901,073	4,69
901,32	5,69
901,568	-8,31
901,815	-5,31
902,062	4,69
902,31	-8,31
902,557	-4,31
902,805	17,69
903,052	3,69
903,299	-7,31
903,547	3,69
903,794	-6,31
904,042	-5,31
904,289	3,69
904,536	1,69
904,784	-3,31
905,031	-9,31
905,278	2,69
905,525	2,69
905,773	-2,31
906,02	-6,31
906,267	-7,31
906,515	7,69
906,762	0,69
907,009	5,69
907,256	2,69
907,504	8,69
907,751	9,69
907,998	-2,31
908,245	-5,31
908,492	-12,31
908,74	2,69
908,987	0,69
909,234	-3,31
909,481	-8,31
909,728	-3,31
909,975	-6,31
910,222	-0,31
910,47	1,69
910,717	-12,31
910,964	-0,31
911,211	-12,31
911,458	-12,31
911,705	1,69
911,952	-5,31
912,199	-2,31
912,446	6,69
912,693	11,69
912,94	1,69
913,187	-3,31
913,434	1,69
913,681	1,69
913,928	-10,31
914,175	-5,31
914,422	-1,31
914,669	6,69
914,916	-7,31
915,163	0,69
915,41	9,69
915,657	-6,31
915,904	1,69
916,151	-7,31
916,398	-7,31
916,644	-3,31
916,891	4,69
917,138	-13,31
917,385	10,69
917,632	-0,31
917,879	7,69
918,126	-2,31
918,372	-1,31
918,619	8,69
918,866	6,69
919,113	-1,31
919,36	-6,31
919,606	2,69
919,853	-2,31
920,1	1,69
920,347	-0,31
920,593	10,69
920,84	6,69
921,087	-4,31
921,334	-8,31
921,58	11,69
921,827	-8,31
922,074	-6,31
922,32	-3,31
922,567	7,69
922,814	-6,31
923,06	6,69
923,307	-3,31
923,554	-6,31
923,8	-1,31
924,047	-2,31
924,293	3,69
924,54	7,69
924,787	-12,31
925,033	-10,31
925,28	-6,31
925,526	6,69
925,773	11,69
926,019	3,69
926,266	-3,31
926,512	2,69
926,759	-0,31
927,005	-8,31
927,252	-2,31
927,498	-13,31
927,745	-4,31
927,991	-0,31
928,238	-5,31
928,484	-13,31
928,731	-5,31
928,977	-15,31
929,223	-0,31
929,47	-1,31
929,716	4,69
929,963	13,69
930,209	7,69
930,455	7,69
930,702	-1,31
930,948	0,69
931,194	1,69
931,441	-4,31
931,687	-3,31
931,933	-7,31
932,18	8,69
932,426	-8,31
932,672	-14,31
932,919	16,69
933,165	5,69
933,411	6,69
933,657	7,69
933,904	-7,31
934,15	-7,31
934,396	-4,31
934,642	0,69
934,889	2,69
935,135	16,69
935,381	-1,31
935,627	-7,31
935,873	-7,31
936,119	1,69
936,366	-10,31
936,612	-10,31
936,858	-0,31
937,104	-4,31
937,35	11,69
937,596	2,69
937,842	-3,31
938,088	-6,31
938,334	-0,31
938,58	14,69
938,827	-4,31
939,073	-3,31
939,319	-13,31
939,565	-4,31
939,811	-5,31
940,057	1,69
940,303	4,69
940,549	-7,31
940,795	-6,31
941,041	0,69
941,287	0,69
941,533	-6,31
941,778	3,69
942,024	-5,31
942,27	2,69
942,516	-4,31
942,762	-0,31
943,008	-6,31
943,254	-3,31
943,5	5,69
943,746	7,69
943,992	-1,31
944,237	-2,31
944,483	-2,31
944,729	-4,31
944,975	5,69
945,221	7,69
945,467	-2,31
945,712	-15,31
945,958	-1,31
946,204	-7,31
946,45	-4,31
946,695	1,69
946,941	-1,31
947,187	-5,31
947,433	1,69
947,678	-9,31
947,924	-1,31
948,17	1,69
948,415	-0,31
948,661	5,69
948,907	-8,31
949,153	3,69
949,398	-6,31
949,644	-1,31
949,889	-5,31
950,135	-21,31
950,381	-6,31
950,626	3,69
950,872	-0,31
951,118	-2,31
951,363	-1,31
951,609	-5,31
951,854	-2,31
952,1	4,69
952,345	-8,31
952,591	-3,31
952,836	-5,31
953,082	-2,31
953,327	-6,31
953,573	1,69
953,818	-8,31
954,064	9,69
954,309	-1,31
954,555	0,69
954,8	-7,31
955,046	1,69
955,291	-12,31
955,537	-5,31
955,782	-9,31
956,027	-5,31
956,273	-14,31
956,518	-3,31
956,764	10,69
957,009	-12,31
957,254	-5,31
957,5	6,69
957,745	-4,31
957,99	14,69
958,236	-1,31
958,481	-9,31
958,726	3,69
958,972	0,69
959,217	8,69
959,462	2,69
959,707	6,69
959,953	-2,31
960,198	-0,31
960,443	-1,31
960,688	-5,31
960,934	-5,31
961,179	-4,31
961,424	-2,31
961,669	-0,31
961,914	11,69
962,16	-1,31
962,405	-5,31
962,65	-2,31
962,895	-1,31
963,14	-0,31
963,385	1,69
963,63	0,69
963,876	-16,31
964,121	-14,31
964,366	-4,31
964,611	3,69
964,856	-1,31
965,101	2,69
965,346	3,69
965,591	0,69
965,836	-7,31
966,081	0,69
966,326	2,69
966,571	-9,31
966,816	-6,31
967,061	-11,31
967,306	-4,31
967,551	1,69
967,796	1,69
968,041	5,69
968,286	-17,31
968,531	-1,31
968,776	-9,31
969,021	6,69
969,266	0,69
969,511	-0,31
969,755	-5,31
970	13,69
970,245	-5,31
970,49	9,69
970,735	-1,31
970,98	-6,31
971,225	-3,31
971,469	-9,31
971,714	6,69
971,959	-9,31
972,204	-14,31
972,449	-1,31
972,693	-0,31
972,938	1,69
973,183	9,69
973,428	-2,31
973,672	-0,31
973,917	2,69
974,162	-9,31
974,407	-7,31
974,651	-3,31
974,896	2,69
975,141	2,69
975,385	-7,31
975,63	3,69
975,875	-8,31
976,119	10,69
976,364	-9,31
976,608	-11,31
976,853	-16,31
977,098	5,69
977,342	-9,31
977,587	-0,31
977,831	-5,31
978,076	-6,31
978,321	-16,31
978,565	-4,31
978,81	-6,31
979,054	4,69
979,299	-12,31
979,543	0,69
979,788	-6,31
980,032	-6,31
980,277	-9,31
980,521	-3,31
980,766	0,69
981,01	4,69
981,255	4,69
981,499	-9,31
981,743	-5,31
981,988	-8,31
982,232	5,69
982,477	1,69
982,721	-11,31
982,965	-4,31
983,21	9,69
983,454	9,69
983,699	-4,31
983,943	11,69
984,187	-5,31
984,432	-9,31
984,676	-4,31
984,92	-2,31
985,165	0,69
985,409	6,69
985,653	-10,31
985,897	-0,31
986,142	-10,31
986,386	14,69
986,63	-2,31
986,874	-12,31
987,119	13,69
987,363	11,69
987,607	1,69
987,851	-2,31
988,095	1,69
988,34	2,69
988,584	-3,31
988,828	-2,31
989,072	-1,31
989,316	3,69
989,56	4,69
989,804	-1,31
990,049	-6,31
990,293	-14,31
990,537	-5,31
990,781	3,69
991,025	-6,31
991,269	-5,31
991,513	-9,31
991,757	-9,31
992,001	0,69
992,245	-2,31
992,489	3,69
992,733	0,69
992,977	-9,31
993,221	-15,31
993,465	-11,31
993,709	-9,31
993,953	-20,31
994,197	2,69
994,441	-2,31
994,685	-11,31
994,929	-9,31
995,173	-2,31
995,417	11,69
995,661	-3,31
995,904	3,69
996,148	-6,31
996,392	-0,31
996,636	-10,31
996,88	-15,31
997,124	-9,31
997,368	-18,31
997,611	-0,31
997,855	-9,31
998,099	-11,31
998,343	3,69
998,587	-1,31
998,83	-12,31
999,074	0,69
999,318	-0,31
999,562	-10,31
999,805	-13,31
1000,049	3,69
1000,293	-3,31
1000,537	-2,31
1000,78	11,69
1001,024	-5,31
1001,268	-3,31
1001,511	1,69
1001,755	-4,31
1001,999	5,69
1002,242	4,69
1002,486	3,69
1002,73	-0,31
1002,973	-0,31
1003,217	-6,31
1003,46	5,69
1003,704	-7,31
1003,948	-12,31
1004,191	-12,31
1004,435	-5,31
1004,678	-9,31
1004,922	-13,31
1005,165	7,69
1005,409	5,69
1005,652	6,69
1005,896	13,69
1006,139	-14,31
1006,383	0,69
1006,626	-7,31
1006,87	3,69
1007,113	-1,31
1007,357	-4,31
1007,6	-0,31
1007,844	0,69
1008,087	7,69
1008,33	-16,31
1008,574	-4,31
1008,817	14,69
1009,061	-3,31
1009,304	3,69
1009,547	-1,31
1009,791	-2,31
1010,034	-2,31
1010,277	-5,31
1010,521	-2,31
1010,764	-0,31
1011,007	1,69
1011,251	-8,31
1011,494	2,69
1011,737	10,69
1011,98	-15,31
1012,224	11,69
1012,467	-1,31
1012,71	9,69
1012,953	-1,31
1013,197	-3,31
1013,44	-6,31
1013,683	3,69
1013,926	1,69
1014,169	-13,31
1014,413	-1,31
1014,656	8,69
1014,899	-4,31
1015,142	6,69
1015,385	3,69
1015,628	20,69
1015,871	3,69
1016,115	1,69
1016,358	-13,31
1016,601	2,69
1016,844	13,69
1017,087	3,69
1017,33	-5,31
1017,573	-5,31
1017,816	-1,31
1018,059	4,69
1018,302	5,69
1018,545	-2,31
1018,788	3,69
1019,031	3,69
1019,274	-0,31
1019,517	-9,31
1019,76	3,69
1020,003	-11,31
1020,246	2,69
1020,489	4,69
1020,732	4,69
1020,975	5,69
1021,218	5,69
1021,461	0,69
1021,703	-2,31
1021,946	-4,31
1022,189	-4,31
1022,432	0,69
1022,675	10,69
1022,918	7,69
1023,161	-6,31
1023,403	3,69
1023,646	7,69
1023,889	-10,31
1024,132	4,69
1024,375	2,69
1024,617	-4,31
1024,86	-5,31
1025,103	11,69
1025,346	-3,31
1025,588	-8,31
1025,831	5,69
1026,074	-4,31
1026,317	2,69
1026,559	-4,31
1026,802	5,69
1027,045	5,69
1027,287	-5,31
1027,53	-7,31
1027,773	4,69
1028,015	10,69
1028,258	-2,31
1028,501	5,69
1028,743	2,69
1028,986	-8,31
1029,228	7,69
1029,471	-5,31
1029,714	-8,31
1029,956	1,69
1030,199	-1,31
1030,441	-6,31
1030,684	6,69
1030,926	-1,31
1031,169	1,69
1031,411	4,69
1031,654	0,69
1031,896	5,69
1032,139	12,69
1032,381	-3,31
1032,624	8,69
1032,866	6,69
1033,109	19,69
1033,351	-10,31
1033,594	1,69
1033,836	-4,31
1034,079	0,69
1034,321	-9,31
1034,563	5,69
1034,806	-2,31
1035,048	-2,31
1035,29	4,69
1035,533	-2,31
1035,775	11,69
1036,018	11,69
1036,26	0,69
1036,502	5,69
1036,744	-5,31
1036,987	-9,31
1037,229	-9,31
1037,471	4,69
1037,714	2,69
1037,956	1,69
1038,198	-0,31
1038,44	5,69
1038,683	13,69
1038,925	25,69
1039,167	-2,31
1039,409	-15,31
1039,651	0,69
1039,894	0,69
1040,136	-4,31
1040,378	14,69
1040,62	-5,31
1040,862	5,69
1041,104	2,69
1041,347	8,69
1041,589	3,69
1041,831	-11,31
1042,073	-1,31
1042,315	-5,31
1042,557	2,69
1042,799	-3,31
1043,041	-4,31
1043,283	7,69
1043,525	7,69
1043,767	2,69
1044,009	-9,31
1044,251	-13,31
1044,493	-6,31
1044,735	2,69
1044,977	2,69
1045,219	7,69
1045,461	-3,31
1045,703	-7,31
1045,945	5,69
1046,187	-9,31
1046,429	2,69
1046,671	-2,31
1046,913	-1,31
1047,155	9,69
1047,397	-1,31
1047,639	-3,31
1047,881	-5,31
1048,122	4,69
1048,364	8,69
1048,606	-2,31
1048,848	-1,31
1049,09	-5,31
1049,332	-4,31
1049,573	-6,31
1049,815	-14,31
1050,057	-5,31
1050,299	2,69
1050,541	-2,31
1050,782	0,69
1051,024	-10,31
1051,266	13,69
1051,508	6,69
1051,749	10,69
1051,991	-4,31
1052,233	9,69
1052,474	-5,31
1052,716	1,69
1052,958	1,69
1053,199	-6,31
1053,441	2,69
1053,683	1,69
1053,924	-5,31
1054,166	7,69
1054,408	-5,31
1054,649	4,69
1054,891	7,69
1055,132	-0,31
1055,374	8,69
1055,616	10,69
1055,857	-3,31
1056,099	6,69
1056,34	-0,31
1056,582	-5,31
1056,823	-3,31
1057,065	-6,31
1057,306	1,69
1057,548	10,69
1057,789	-5,31
1058,031	8,69
1058,272	14,69
1058,514	-2,31
1058,755	10,69
1058,997	12,69
1059,238	4,69
1059,479	5,69
1059,721	1,69
1059,962	-2,31
1060,204	-0,31
1060,445	-13,31
1060,686	-4,31
1060,928	3,69
1061,169	3,69
1061,41	-0,31
1061,652	12,69
1061,893	-2,31
1062,134	13,69
1062,376	-2,31
1062,617	9,69
1062,858	-5,31
1063,1	11,69
1063,341	1,69
1063,582	3,69
1063,823	-8,31
1064,065	-1,31
1064,306	3,69
1064,547	4,69
1064,788	3,69
1065,029	12,69
1065,271	3,69
1065,512	0,69
1065,753	3,69
1065,994	10,69
1066,235	-6,31
1066,476	-5,31
1066,718	-0,31
1066,959	11,69
1067,2	-9,31
1067,441	4,69
1067,682	-3,31
1067,923	-5,31
1068,164	1,69
1068,405	-10,31
1068,646	-1,31
1068,887	-0,31
1069,128	-7,31
1069,369	10,69
1069,61	1,69
1069,851	1,69
1070,092	-1,31
1070,333	11,69
1070,574	9,69
1070,815	3,69
1071,056	3,69
1071,297	9,69
1071,538	6,69
1071,779	3,69
1072,02	-1,31
1072,261	-6,31
1072,502	-14,31
1072,743	2,69
1072,984	1,69
1073,225	2,69
1073,466	0,69
1073,706	-0,31
1073,947	4,69
1074,188	1,69
1074,429	-1,31
1074,67	-3,31
1074,911	1,69
1075,151	-1,31
1075,392	-9,31
1075,633	7,69
1075,874	-6,31
1076,114	4,69
1076,355	-8,31
1076,596	-1,31
1076,837	-1,31
1077,077	-5,31
1077,318	-5,31
1077,559	-2,31
1077,8	-6,31
1078,04	-8,31
1078,281	2,69
1078,522	-1,31
1078,762	10,69
1079,003	20,69
1079,244	10,69
1079,484	-7,31
1079,725	3,69
1079,965	1,69
1080,206	2,69
1080,447	5,69
1080,687	3,69
1080,928	1,69
1081,168	-5,31
1081,409	-0,31
1081,649	-3,31
1081,89	8,69
1082,131	4,69
1082,371	1,69
1082,612	4,69
1082,852	7,69
1083,093	11,69
1083,333	13,69
1083,573	0,69
1083,814	9,69
1084,054	0,69
1084,295	6,69
1084,535	-6,31
1084,776	-6,31
1085,016	-6,31
1085,257	0,69
1085,497	-4,31
1085,737	16,69
1085,978	5,69
1086,218	-1,31
1086,458	-7,31
1086,699	10,69
1086,939	-4,31
1087,179	-10,31
1087,42	3,69
1087,66	6,69
1087,9	11,69
1088,141	1,69
1088,381	5,69
1088,621	-2,31
1088,861	2,69
1089,102	4,69
1089,342	-3,31
1089,582	-3,31
1089,822	12,69
1090,063	-3,31
1090,303	1,69
1090,543	1,69
1090,783	11,69
1091,023	5,69
1091,263	9,69
1091,504	7,69
1091,744	-7,31
1091,984	12,69
1092,224	-7,31
1092,464	0,69
1092,704	15,69
1092,944	7,69
1093,184	0,69
1093,425	10,69
1093,665	-7,31
1093,905	-7,31
1094,145	7,69
1094,385	-1,31
1094,625	2,69
1094,865	10,69
1095,105	4,69
1095,345	-1,31
1095,585	-6,31
1095,825	-10,31
1096,065	9,69
1096,305	-0,31
1096,545	3,69
1096,785	3,69
1097,025	-0,31
1097,265	6,69
1097,504	2,69
1097,744	5,69
1097,984	3,69
1098,224	-0,31
1098,464	2,69
1098,704	14,69
1098,944	9,69
1099,184	13,69
1099,423	17,69
1099,663	10,69
1099,903	10,69
1100,143	3,69
1100,383	1,69
1100,622	-8,31
1100,862	-2,31
1101,102	-5,31
1101,342	0,69
1101,582	9,69
1101,821	-2,31
1102,061	6,69
1102,301	2,69
1102,54	-3,31
1102,78	1,69
1103,02	-13,31
1103,26	1,69
1103,499	-9,31
1103,739	3,69
1103,979	-1,31
1104,218	7,69
1104,458	0,69
1104,697	3,69
1104,937	6,69
1105,177	10,69
1105,416	-11,31
1105,656	-4,31
1105,896	-2,31
1106,135	6,69
1106,375	-1,31
1106,614	-3,31
1106,854	-2,31
1107,093	9,69
1107,333	6,69
1107,572	-12,31
1107,812	-6,31
1108,051	-7,31
1108,291	4,69
1108,53	-10,31
1108,77	-0,31
1109,009	-5,31
1109,249	-0,31
1109,488	13,69
1109,728	19,69
1109,967	3,69
1110,206	-0,31
1110,446	-2,31
1110,685	-3,31
1110,925	7,69
1111,164	-0,31
1111,403	-5,31
1111,643	3,69
1111,882	-3,31
1112,121	-1,31
1112,361	2,69
1112,6	-13,31
1112,839	-6,31
1113,079	-13,31
1113,318	-6,31
1113,557	-0,31
1113,796	-1,31
1114,036	8,69
1114,275	11,69
1114,514	0,69
1114,753	9,69
1114,993	10,69
1115,232	2,69
1115,471	-4,31
1115,71	-0,31
1115,949	10,69
1116,188	17,69
1116,428	1,69
1116,667	0,69
1116,906	-1,31
1117,145	8,69
1117,384	5,69
1117,623	7,69
1117,862	-5,31
1118,101	-6,31
1118,341	-4,31
1118,58	0,69
1118,819	-1,31
1119,058	-9,31
1119,297	3,69
1119,536	4,69
1119,775	0,69
1120,014	14,69
1120,253	5,69
1120,492	-5,31
1120,731	-5,31
1120,97	-12,31
1121,209	-6,31
1121,448	0,69
1121,687	-2,31
1121,926	-0,31
1122,165	-13,31
1122,404	-5,31
1122,642	2,69
1122,881	-5,31
1123,12	2,69
1123,359	-4,31
1123,598	7,69
1123,837	0,69
1124,076	-9,31
1124,315	-2,31
1124,553	3,69
1124,792	-3,31
1125,031	-0,31
1125,27	0,69
1125,509	-4,31
1125,747	0,69
1125,986	1,69
1126,225	-5,31
