Data from HR4C34221__7__15-16-56-378.txt Node

Date: Fri Apr 07 15:16:56 MSK 2023
User: 123
Spectrometer: HR4C3422
Trigger mode: 4
Integration Time (sec): 7,200000E-2
Scans to average: 1
Electric dark correction enabled: true
Nonlinearity correction enabled: false
Boxcar width: 0
XAxis mode: Wavelengths
Number of Pixels in Spectrum: 3648
>>>>>Begin Spectral Data<<<<<
195,326	-18,23
195,597	-18,23
195,868	-18,23
196,139	-31,23
196,409	-6,23
196,68	-5,23
196,951	0,77
197,221	-2,23
197,492	-2,23
197,762	9,77
198,033	-1,23
198,304	-11,23
198,574	-5,23
198,845	5,77
199,116	7,77
199,386	7,77
199,657	-14,23
199,927	9,77
200,198	15,77
200,468	1,77
200,739	-2,23
201,009	3,77
201,28	10,77
201,551	-10,23
201,821	-3,23
202,092	-2,23
202,362	2,77
202,633	1,77
202,903	-9,23
203,174	-8,23
203,444	6,77
203,714	6,77
203,985	-8,23
204,255	-2,23
204,526	50,77
204,796	2,77
205,067	15,77
205,337	0,77
205,607	14,77
205,878	41,77
206,148	16,77
206,419	-10,23
206,689	1,77
206,959	4,77
207,23	-13,23
207,5	14,77
207,77	8,77
208,041	2,77
208,311	24,77
208,581	7,77
208,852	0,77
209,122	0,77
209,392	-15,23
209,663	-6,23
209,933	-3,23
210,203	12,77
210,473	-7,23
210,744	-7,23
211,014	17,77
211,284	13,77
211,554	7,77
211,825	7,77
212,095	1,77
212,365	5,77
212,635	5,77
212,905	-4,23
213,176	0,77
213,446	16,77
213,716	-16,23
213,986	8,77
214,256	14,77
214,526	0,77
214,797	5,77
215,067	11,77
215,337	9,77
215,607	4,77
215,877	2,77
216,147	-9,23
216,417	-9,23
216,687	12,77
216,957	9,77
217,227	-14,23
217,497	-0,23
217,767	5,77
218,038	13,77
218,308	12,77
218,578	5,77
218,848	9,77
219,118	3,77
219,388	-0,23
219,658	-5,23
219,928	15,77
220,198	7,77
220,468	-5,23
220,737	-15,23
221,007	5,77
221,277	11,77
221,547	14,77
221,817	-5,23
222,087	-3,23
222,357	-1,23
222,627	-3,23
222,897	16,77
223,167	9,77
223,437	2,77
223,707	6,77
223,976	11,77
224,246	-2,23
224,516	15,77
224,786	-6,23
225,056	1,77
225,326	-3,23
225,595	-10,23
225,865	-3,23
226,135	-7,23
226,405	2,77
226,675	10,77
226,944	7,77
227,214	-2,23
227,484	7,77
227,754	4,77
228,023	9,77
228,293	-12,23
228,563	4,77
228,833	2,77
229,102	12,77
229,372	1,77
229,642	3,77
229,911	5,77
230,181	9,77
230,451	1,77
230,72	14,77
230,99	-1,23
231,26	-6,23
231,529	1,77
231,799	15,77
232,069	2,77
232,338	7,77
232,608	13,77
232,877	-2,23
233,147	1,77
233,417	1,77
233,686	3,77
233,956	5,77
234,225	1,77
234,495	-14,23
234,764	17,77
235,034	-2,23
235,304	-11,23
235,573	66,77
235,843	13,77
236,112	4,77
236,382	-2,23
236,651	17,77
236,921	-3,23
237,19	12,77
237,46	-11,23
237,729	8,77
237,998	-3,23
238,268	-5,23
238,537	14,77
238,807	3,77
239,076	2,77
239,346	-2,23
239,615	-1,23
239,884	-3,23
240,154	1,77
240,423	3,77
240,693	-0,23
240,962	-1,23
241,231	13,77
241,501	-3,23
241,77	-11,23
242,039	-9,23
242,309	3,77
242,578	5,77
242,847	-8,23
243,116	7,77
243,386	1,77
243,655	6,77
243,924	6,77
244,194	15,77
244,463	10,77
244,732	12,77
245,001	1,77
245,271	47,77
245,54	2,77
245,809	-5,23
246,078	-7,23
246,347	-6,23
246,617	4,77
246,886	-0,23
247,155	-5,23
247,424	6,77
247,693	-0,23
247,963	1,77
248,232	3,77
248,501	10,77
248,77	5,77
249,039	6,77
249,308	6,77
249,577	3,77
249,846	7,77
250,115	-2,23
250,385	4,77
250,654	-0,23
250,923	12,77
251,192	8,77
251,461	8,77
251,73	11,77
251,999	0,77
252,268	-1,23
252,537	6,77
252,806	2,77
253,075	2,77
253,344	2,77
253,613	8,77
253,882	-6,23
254,151	7,77
254,42	0,77
254,689	3,77
254,958	-8,23
255,227	-8,23
255,496	0,77
255,765	0,77
256,033	-6,23
256,302	24,77
256,571	4,77
256,84	-0,23
257,109	-13,23
257,378	-5,23
257,647	-15,23
257,916	-10,23
258,184	5,77
258,453	10,77
258,722	10,77
258,991	-7,23
259,26	-12,23
259,529	-7,23
259,797	-7,23
260,066	8,77
260,335	10,77
260,604	6,77
260,873	3,77
261,141	-11,23
261,41	-3,23
261,679	12,77
261,948	17,77
262,216	-0,23
262,485	-8,23
262,754	-11,23
263,022	10,77
263,291	7,77
263,56	6,77
263,829	-4,23
264,097	-1,23
264,366	17,77
264,635	-4,23
264,903	0,77
265,172	8,77
265,44	14,77
265,709	1,77
265,978	0,77
266,246	10,77
266,515	8,77
266,784	-8,23
267,052	-1,23
267,321	-7,23
267,589	58,77
267,858	14,77
268,126	-1,23
268,395	-5,23
268,663	11,77
268,932	10,77
269,201	9,77
269,469	1,77
269,738	8,77
270,006	1,77
270,275	14,77
270,543	-3,23
270,811	8,77
271,08	2,77
271,348	13,77
271,617	8,77
271,885	-7,23
272,154	-9,23
272,422	6,77
272,691	-5,23
272,959	23,77
273,227	3,77
273,496	3,77
273,764	0,77
274,033	22,77
274,301	2,77
274,569	11,77
274,838	1,77
275,106	-0,23
275,374	16,77
275,643	15,77
275,911	4,77
276,179	5,77
276,448	16,77
276,716	7,77
276,984	-1,23
277,252	6,77
277,521	-6,23
277,789	-3,23
278,057	-1,23
278,325	-10,23
278,594	15,77
278,862	4,77
279,13	-17,23
279,398	0,77
279,667	9,77
279,935	13,77
280,203	8,77
280,471	-3,23
280,739	2,77
281,008	-3,23
281,276	-6,23
281,544	-2,23
281,812	-7,23
282,08	9,77
282,348	11,77
282,616	3,77
282,884	-6,23
283,153	0,77
283,421	6,77
283,689	7,77
283,957	-1,23
284,225	8,77
284,493	16,77
284,761	18,77
285,029	10,77
285,297	-1,23
285,565	7,77
285,833	-12,23
286,101	3,77
286,369	-12,23
286,637	-13,23
286,905	-17,23
287,173	-1,23
287,441	-8,23
287,709	23,77
287,977	10,77
288,245	3,77
288,513	14,77
288,781	-8,23
289,049	1,77
289,317	-4,23
289,585	-16,23
289,853	6,77
290,12	-2,23
290,388	-5,23
290,656	3,77
290,924	0,77
291,192	-1,23
291,46	-11,23
291,728	-0,23
291,996	-2,23
292,263	14,77
292,531	-3,23
292,799	0,77
293,067	-0,23
293,335	11,77
293,602	-2,23
293,87	6,77
294,138	10,77
294,406	16,77
294,673	6,77
294,941	9,77
295,209	-0,23
295,477	0,77
295,744	-2,23
296,012	2,77
296,28	0,77
296,548	-6,23
296,815	-21,23
297,083	15,77
297,351	14,77
297,618	18,77
297,886	4,77
298,154	7,77
298,421	-7,23
298,689	-10,23
298,956	-4,23
299,224	-12,23
299,492	-15,23
299,759	-15,23
300,027	-9,23
300,294	8,77
300,562	-1,23
300,83	-6,23
301,097	-11,23
301,365	-15,23
301,632	2,77
301,9	-17,23
302,167	-0,23
302,435	7,77
302,702	2,77
302,97	-5,23
303,237	5,77
303,505	15,77
303,772	1,77
304,04	-5,23
304,307	-8,23
304,575	-3,23
304,842	-11,23
305,11	10,77
305,377	-5,23
305,645	6,77
305,912	-7,23
306,179	-9,23
306,447	-8,23
306,714	-7,23
306,982	-0,23
307,249	0,77
307,516	-2,23
307,784	1,77
308,051	-2,23
308,318	8,77
308,586	6,77
308,853	0,77
309,12	3,77
309,388	4,77
309,655	-1,23
309,922	5,77
310,19	-6,23
310,457	14,77
310,724	3,77
310,991	0,77
311,259	-14,23
311,526	-5,23
311,793	-6,23
312,06	-8,23
312,328	20,77
312,595	11,77
312,862	-3,23
313,129	11,77
313,396	-7,23
313,664	0,77
313,931	4,77
314,198	10,77
314,465	-2,23
314,732	-27,23
314,999	9,77
315,266	5,77
315,534	5,77
315,801	0,77
316,068	-9,23
316,335	-11,23
316,602	-12,23
316,869	0,77
317,136	-3,23
317,403	11,77
317,67	3,77
317,937	7,77
318,204	6,77
318,471	-0,23
318,738	14,77
319,005	3,77
319,272	-13,23
319,539	-3,23
319,806	20,77
320,073	18,77
320,34	5,77
320,607	8,77
320,874	14,77
321,141	10,77
321,408	13,77
321,675	6,77
321,942	2,77
322,209	-1,23
322,476	-9,23
322,743	6,77
323,01	10,77
323,277	-3,23
323,544	1,77
323,81	7,77
324,077	5,77
324,344	9,77
324,611	7,77
324,878	-8,23
325,145	1,77
325,412	7,77
325,678	-13,23
325,945	-6,23
326,212	-1,23
326,479	10,77
326,746	16,77
327,012	2,77
327,279	-14,23
327,546	9,77
327,813	15,77
328,079	9,77
328,346	-1,23
328,613	4,77
328,88	14,77
329,146	10,77
329,413	1,77
329,68	-11,23
329,946	8,77
330,213	-5,23
330,48	-10,23
330,746	-9,23
331,013	0,77
331,28	-6,23
331,546	-2,23
331,813	-8,23
332,08	-9,23
332,346	2,77
332,613	-12,23
332,879	-3,23
333,146	13,77
333,413	-3,23
333,679	-8,23
333,946	6,77
334,212	8,77
334,479	10,77
334,745	6,77
335,012	8,77
335,278	-10,23
335,545	4,77
335,811	-9,23
336,078	12,77
336,344	-8,23
336,611	5,77
336,877	-7,23
337,144	-1,23
337,41	6,77
337,677	12,77
337,943	12,77
338,21	-3,23
338,476	-3,23
338,742	9,77
339,009	17,77
339,275	-14,23
339,542	0,77
339,808	7,77
340,074	-11,23
340,341	-14,23
340,607	-3,23
340,873	7,77
341,14	8,77
341,406	-9,23
341,672	1,77
341,939	-9,23
342,205	7,77
342,471	6,77
342,738	-6,23
343,004	-2,23
343,27	-12,23
343,537	14,77
343,803	6,77
344,069	-9,23
344,335	-4,23
344,602	-5,23
344,868	-9,23
345,134	4,77
345,4	-4,23
345,666	8,77
345,933	-0,23
346,199	4,77
346,465	-0,23
346,731	0,77
346,997	-9,23
347,263	-5,23
347,53	-0,23
347,796	3,77
348,062	7,77
348,328	9,77
348,594	-2,23
348,86	-9,23
349,126	2,77
349,392	8,77
349,659	5,77
349,925	-5,23
350,191	-3,23
350,457	3,77
350,723	-6,23
350,989	1,77
351,255	9,77
351,521	-0,23
351,787	2,77
352,053	-5,23
352,319	5,77
352,585	11,77
352,851	-4,23
353,117	-7,23
353,383	6,77
353,649	-11,23
353,915	3,77
354,181	9,77
354,447	12,77
354,713	-11,23
354,978	-2,23
355,244	-1,23
355,51	-10,23
355,776	2,77
356,042	4,77
356,308	0,77
356,574	-12,23
356,84	-10,23
357,106	-2,23
357,371	-5,23
357,637	11,77
357,903	14,77
358,169	5,77
358,435	1,77
358,701	6,77
358,966	-9,23
359,232	-0,23
359,498	1,77
359,764	-2,23
360,029	9,77
360,295	-7,23
360,561	0,77
360,827	-6,23
361,092	-10,23
361,358	-2,23
361,624	-5,23
361,89	-9,23
362,155	-1,23
362,421	7,77
362,687	-5,23
362,952	-1,23
363,218	5,77
363,484	10,77
363,749	0,77
364,015	3,77
364,281	2,77
364,546	-0,23
364,812	-6,23
365,077	-1,23
365,343	12,77
365,609	-14,23
365,874	4,77
366,14	7,77
366,405	13,77
366,671	-1,23
366,936	11,77
367,202	-12,23
367,467	11,77
367,733	6,77
367,999	3,77
368,264	15,77
368,53	8,77
368,795	-15,23
369,061	-13,23
369,326	10,77
369,591	-4,23
369,857	4,77
370,122	-1,23
370,388	-7,23
370,653	1,77
370,919	-17,23
371,184	-3,23
371,45	7,77
371,715	3,77
371,98	17,77
372,246	-2,23
372,511	12,77
372,776	4,77
373,042	6,77
373,307	3,77
373,573	-7,23
373,838	-0,23
374,103	15,77
374,369	15,77
374,634	6,77
374,899	-11,23
375,164	-0,23
375,43	2,77
375,695	29,77
375,96	-10,23
376,226	-4,23
376,491	4,77
376,756	-1,23
377,021	-6,23
377,286	1,77
377,552	-3,23
377,817	8,77
378,082	7,77
378,347	1,77
378,613	9,77
378,878	7,77
379,143	1,77
379,408	-4,23
379,673	-12,23
379,938	-1,23
380,203	2,77
380,469	7,77
380,734	10,77
380,999	2,77
381,264	-7,23
381,529	-0,23
381,794	-13,23
382,059	3,77
382,324	-4,23
382,589	9,77
382,854	4,77
383,119	-1,23
383,385	-3,23
383,65	-14,23
383,915	-1,23
384,18	-1,23
384,445	8,77
384,71	9,77
384,975	2,77
385,24	-2,23
385,505	4,77
385,77	18,77
386,034	10,77
386,299	-1,23
386,564	14,77
386,829	14,77
387,094	5,77
387,359	-3,23
387,624	1,77
387,889	5,77
388,154	-12,23
388,419	10,77
388,684	20,77
388,949	1,77
389,213	0,77
389,478	-17,23
389,743	-2,23
390,008	-8,23
390,273	7,77
390,538	-2,23
390,802	4,77
391,067	1,77
391,332	-5,23
391,597	-3,23
391,862	2,77
392,126	-0,23
392,391	8,77
392,656	0,77
392,921	1,77
393,185	-1,23
393,45	1,77
393,715	8,77
393,979	0,77
394,244	-0,23
394,509	6,77
394,774	23,77
395,038	10,77
395,303	-1,23
395,568	16,77
395,832	-4,23
396,097	-2,23
396,361	-1,23
396,626	-9,23
396,891	3,77
397,155	8,77
397,42	14,77
397,685	-7,23
397,949	-10,23
398,214	-11,23
398,478	0,77
398,743	-2,23
399,007	10,77
399,272	-5,23
399,536	-7,23
399,801	21,77
400,066	-21,23
400,33	-18,23
400,595	-3,23
400,859	1,77
401,124	4,77
401,388	-2,23
401,652	-14,23
401,917	10,77
402,181	-1,23
402,446	-3,23
402,71	-7,23
402,975	-6,23
403,239	-5,23
403,504	6,77
403,768	9,77
404,032	7,77
404,297	13,77
404,561	0,77
404,826	11,77
405,09	3,77
405,354	-5,23
405,619	10,77
405,883	1,77
406,147	-8,23
406,412	19,77
406,676	2,77
406,94	21,77
407,205	28,77
407,469	2,77
407,733	-2,23
407,997	5,77
408,262	0,77
408,526	9,77
408,79	11,77
409,054	-10,23
409,319	1,77
409,583	-5,23
409,847	-11,23
410,111	-5,23
410,375	-0,23
410,64	1,77
410,904	16,77
411,168	-1,23
411,432	9,77
411,696	1,77
411,96	2,77
412,225	19,77
412,489	16,77
412,753	13,77
413,017	9,77
413,281	7,77
413,545	16,77
413,809	-1,23
414,073	1,77
414,337	-3,23
414,602	-2,23
414,866	-9,23
415,13	5,77
415,394	-1,23
415,658	1,77
415,922	7,77
416,186	-0,23
416,45	-1,23
416,714	-1,23
416,978	-8,23
417,242	6,77
417,506	0,77
417,77	-1,23
418,034	5,77
418,298	-12,23
418,562	15,77
418,825	11,77
419,089	24,77
419,353	-5,23
419,617	0,77
419,881	3,77
420,145	-1,23
420,409	5,77
420,673	-0,23
420,937	-14,23
421,2	2,77
421,464	3,77
421,728	-5,23
421,992	15,77
422,256	2,77
422,52	-5,23
422,783	0,77
423,047	21,77
423,311	-8,23
423,575	-7,23
423,839	-21,23
424,102	-6,23
424,366	-10,23
424,63	-0,23
424,894	1,77
425,157	1,77
425,421	1,77
425,685	0,77
425,949	-4,23
426,212	6,77
426,476	1,77
426,74	-3,23
427,003	3,77
427,267	3,77
427,531	5,77
427,794	-5,23
428,058	-9,23
428,322	-6,23
428,585	-2,23
428,849	8,77
429,112	12,77
429,376	14,77
429,64	8,77
429,903	-13,23
430,167	4,77
430,43	-7,23
430,694	-11,23
430,957	-12,23
431,221	1,77
431,485	3,77
431,748	-10,23
432,012	0,77
432,275	12,77
432,539	6,77
432,802	-1,23
433,066	1,77
433,329	-21,23
433,593	-12,23
433,856	2,77
434,119	5,77
434,383	-3,23
434,646	-11,23
434,91	6,77
435,173	-0,23
435,437	1,77
435,7	8,77
435,963	8,77
436,227	4,77
436,49	-9,23
436,753	10,77
437,017	7,77
437,28	0,77
437,544	6,77
437,807	0,77
438,07	-2,23
438,334	-2,23
438,597	-4,23
438,86	-6,23
439,123	-5,23
439,387	15,77
439,65	-0,23
439,913	5,77
440,177	-7,23
440,44	-8,23
440,703	-13,23
440,966	-6,23
441,229	4,77
441,493	-1,23
441,756	-6,23
442,019	4,77
442,282	5,77
442,545	-9,23
442,809	14,77
443,072	6,77
443,335	-10,23
443,598	-7,23
443,861	-1,23
444,124	-11,23
444,388	-6,23
444,651	5,77
444,914	12,77
445,177	1,77
445,44	13,77
445,703	-13,23
445,966	19,77
446,229	2,77
446,492	16,77
446,755	20,77
447,018	11,77
447,281	0,77
447,544	5,77
447,807	16,77
448,07	1,77
448,333	-9,23
448,596	2,77
448,859	13,77
449,122	3,77
449,385	10,77
449,648	-0,23
449,911	-2,23
450,174	-10,23
450,437	6,77
450,7	6,77
450,963	-6,23
451,226	-7,23
451,489	-1,23
451,752	3,77
452,015	10,77
452,277	-6,23
452,54	4,77
452,803	-2,23
453,066	11,77
453,329	10,77
453,592	7,77
453,855	-19,23
454,117	-7,23
454,38	-0,23
454,643	-7,23
454,906	-11,23
455,169	-10,23
455,431	-4,23
455,694	0,77
455,957	12,77
456,22	7,77
456,482	4,77
456,745	-11,23
457,008	-6,23
457,271	2,77
457,533	16,77
457,796	-3,23
458,059	11,77
458,321	-1,23
458,584	0,77
458,847	-9,23
459,109	-13,23
459,372	6,77
459,635	0,77
459,897	-0,23
460,16	1,77
460,423	6,77
460,685	14,77
460,948	16,77
461,21	-10,23
461,473	5,77
461,735	-12,23
461,998	2,77
462,261	-13,23
462,523	-6,23
462,786	16,77
463,048	-0,23
463,311	-5,23
463,573	8,77
463,836	-0,23
464,098	3,77
464,361	9,77
464,623	7,77
464,886	6,77
465,148	-13,23
465,411	-20,23
465,673	1,77
465,936	7,77
466,198	15,77
466,46	5,77
466,723	0,77
466,985	5,77
467,248	5,77
467,51	4,77
467,772	16,77
468,035	7,77
468,297	4,77
468,56	-12,23
468,822	8,77
469,084	-8,23
469,347	5,77
469,609	6,77
469,871	-3,23
470,133	15,77
470,396	8,77
470,658	2,77
470,92	-6,23
471,183	8,77
471,445	2,77
471,707	8,77
471,969	5,77
472,232	-2,23
472,494	0,77
472,756	-7,23
473,018	10,77
473,281	18,77
473,543	12,77
473,805	-2,23
474,067	16,77
474,329	-4,23
474,591	1,77
474,854	0,77
475,116	14,77
475,378	4,77
475,64	5,77
475,902	-10,23
476,164	1,77
476,426	2,77
476,688	-10,23
476,951	0,77
477,213	12,77
477,475	10,77
477,737	2,77
477,999	-8,23
478,261	16,77
478,523	-8,23
478,785	10,77
479,047	-2,23
479,309	-2,23
479,571	5,77
479,833	-2,23
480,095	5,77
480,357	0,77
480,619	13,77
480,881	-7,23
481,143	-6,23
481,405	4,77
481,667	-5,23
481,929	0,77
482,191	2,77
482,452	7,77
482,714	15,77
482,976	10,77
483,238	9,77
483,5	18,77
483,762	4,77
484,024	-0,23
484,286	7,77
484,547	22,77
484,809	-4,23
485,071	-1,23
485,333	-16,23
485,595	-12,23
485,857	-7,23
486,118	-18,23
486,38	9,77
486,642	-0,23
486,904	-9,23
487,165	-3,23
487,427	0,77
487,689	13,77
487,951	-0,23
488,212	3,77
488,474	-5,23
488,736	6,77
488,998	3,77
489,259	17,77
489,521	6,77
489,783	0,77
490,044	15,77
490,306	7,77
490,568	8,77
490,829	13,77
491,091	-7,23
491,353	2,77
491,614	10,77
491,876	2,77
492,137	1,77
492,399	10,77
492,661	4,77
492,922	-7,23
493,184	4,77
493,445	13,77
493,707	8,77
493,968	-1,23
494,23	2,77
494,491	-3,23
494,753	0,77
495,014	16,77
495,276	-0,23
495,537	-1,23
495,799	-24,23
496,06	-0,23
496,322	-5,23
496,583	10,77
496,845	-14,23
497,106	7,77
497,368	-7,23
497,629	-5,23
497,89	0,77
498,152	18,77
498,413	-3,23
498,675	-11,23
498,936	-11,23
499,197	-0,23
499,459	0,77
499,72	13,77
499,981	-2,23
500,243	-4,23
500,504	18,77
500,765	-3,23
501,027	-14,23
501,288	15,77
501,549	8,77
501,811	6,77
502,072	-1,23
502,333	12,77
502,594	-2,23
502,856	7,77
503,117	-7,23
503,378	3,77
503,639	2,77
503,901	-1,23
504,162	-15,23
504,423	8,77
504,684	2,77
504,945	10,77
505,207	21,77
505,468	12,77
505,729	-3,23
505,99	11,77
506,251	-6,23
506,512	14,77
506,774	0,77
507,035	1,77
507,296	5,77
507,557	14,77
507,818	-11,23
508,079	9,77
508,34	0,77
508,601	-6,23
508,862	1,77
509,123	7,77
509,384	2,77
509,645	7,77
509,906	-0,23
510,167	8,77
510,428	-2,23
510,689	-10,23
510,95	-3,23
511,211	-10,23
511,472	6,77
511,733	-8,23
511,994	-2,23
512,255	4,77
512,516	-0,23
512,777	2,77
513,038	3,77
513,299	-13,23
513,56	-0,23
513,821	15,77
514,082	3,77
514,343	7,77
514,603	1,77
514,864	18,77
515,125	6,77
515,386	-9,23
515,647	-2,23
515,908	3,77
516,169	19,77
516,429	4,77
516,69	1,77
516,951	-1,23
517,212	8,77
517,473	-3,23
517,733	-11,23
517,994	-5,23
518,255	0,77
518,516	7,77
518,776	15,77
519,037	8,77
519,298	-8,23
519,559	21,77
519,819	5,77
520,08	13,77
520,341	-4,23
520,601	9,77
520,862	2,77
521,123	7,77
521,383	10,77
521,644	-3,23
521,905	-4,23
522,165	9,77
522,426	1,77
522,686	1,77
522,947	6,77
523,208	26,77
523,468	5,77
523,729	12,77
523,989	17,77
524,25	17,77
524,51	14,77
524,771	11,77
525,032	2,77
525,292	1,77
525,553	6,77
525,813	17,77
526,074	-4,23
526,334	-2,23
526,595	-8,23
526,855	-5,23
527,116	-9,23
527,376	4,77
527,636	-12,23
527,897	2,77
528,157	12,77
528,418	14,77
528,678	0,77
528,939	1,77
529,199	5,77
529,459	3,77
529,72	-4,23
529,98	12,77
530,24	8,77
530,501	10,77
530,761	9,77
531,022	1,77
531,282	11,77
531,542	-0,23
531,803	1,77
532,063	-17,23
532,323	5,77
532,583	8,77
532,844	2,77
533,104	-10,23
533,364	-13,23
533,624	1,77
533,885	-3,23
534,145	-8,23
534,405	5,77
534,665	3,77
534,926	18,77
535,186	3,77
535,446	6,77
535,706	-6,23
535,966	5,77
536,227	-0,23
536,487	-2,23
536,747	4,77
537,007	10,77
537,267	3,77
537,527	-4,23
537,787	10,77
538,048	7,77
538,308	-6,23
538,568	-16,23
538,828	-9,23
539,088	6,77
539,348	-5,23
539,608	15,77
539,868	18,77
540,128	6,77
540,388	9,77
540,648	-8,23
540,908	-2,23
541,168	15,77
541,428	4,77
541,688	-9,23
541,948	8,77
542,208	14,77
542,468	-11,23
542,728	0,77
542,988	7,77
543,248	-12,23
543,508	-9,23
543,768	-6,23
544,028	2,77
544,288	7,77
544,548	5,77
544,807	-15,23
545,067	6,77
545,327	12,77
545,587	10,77
545,847	17,77
546,107	-0,23
546,367	12,77
546,626	-9,23
546,886	-8,23
547,146	-1,23
547,406	2,77
547,666	-8,23
547,925	-15,23
548,185	7,77
548,445	6,77
548,705	17,77
548,965	3,77
549,224	7,77
549,484	12,77
549,744	16,77
550,003	8,77
550,263	13,77
550,523	-5,23
550,783	-0,23
551,042	-1,23
551,302	-2,23
551,562	2,77
551,821	-5,23
552,081	-1,23
552,341	3,77
552,6	0,77
552,86	18,77
553,119	0,77
553,379	-7,23
553,639	-5,23
553,898	10,77
554,158	3,77
554,417	7,77
554,677	5,77
554,936	12,77
555,196	11,77
555,456	12,77
555,715	5,77
555,975	6,77
556,234	3,77
556,494	-11,23
556,753	4,77
557,013	2,77
557,272	9,77
557,532	4,77
557,791	8,77
558,051	-1,23
558,31	4,77
558,569	-0,23
558,829	-3,23
559,088	5,77
559,348	9,77
559,607	-1,23
559,866	6,77
560,126	9,77
560,385	3,77
560,645	1,77
560,904	2,77
561,163	7,77
561,423	-8,23
561,682	18,77
561,941	-7,23
562,201	-2,23
562,46	-0,23
562,719	8,77
562,979	5,77
563,238	-0,23
563,497	17,77
563,756	4,77
564,016	9,77
564,275	-2,23
564,534	-10,23
564,793	3,77
565,053	11,77
565,312	18,77
565,571	9,77
565,83	11,77
566,089	1,77
566,349	13,77
566,608	9,77
566,867	6,77
567,126	14,77
567,385	5,77
567,644	20,77
567,903	10,77
568,163	11,77
568,422	19,77
568,681	3,77
568,94	26,77
569,199	43,77
569,458	22,77
569,717	44,77
569,976	39,77
570,235	29,77
570,494	55,77
570,753	50,77
571,012	45,77
571,271	66,77
571,53	78,77
571,789	69,77
572,048	83,77
572,307	99,77
572,566	101,77
572,825	107,77
573,084	120,77
573,343	133,77
573,602	155,77
573,861	162,77
574,12	172,77
574,379	168,77
574,638	191,77
574,897	211,77
575,156	230,77
575,414	253,77
575,673	268,77
575,932	284,77
576,191	281,77
576,45	310,77
576,709	312,77
576,968	329,77
577,226	356,77
577,485	352,77
577,744	395,77
578,003	404,77
578,262	415,77
578,52	434,77
578,779	456,77
579,038	473,77
579,297	503,77
579,555	496,77
579,814	529,77
580,073	542,77
580,332	553,77
580,59	569,77
580,849	576,77
581,108	616,77
581,366	622,77
581,625	637,77
581,884	631,77
582,142	664,77
582,401	664,77
582,66	657,77
582,918	661,77
583,177	654,77
583,436	666,77
583,694	712,77
583,953	721,77
584,211	723,77
584,47	718,77
584,728	725,77
584,987	726,77
585,246	781,77
585,504	738,77
585,763	756,77
586,021	739,77
586,28	746,77
586,538	754,77
586,797	726,77
587,055	741,77
587,314	755,77
587,572	770,77
587,831	791,77
588,089	766,77
588,348	786,77
588,606	758,77
588,864	762,77
589,123	779,77
589,381	766,77
589,64	762,77
589,898	762,77
590,157	763,77
590,415	764,77
590,673	774,77
590,932	754,77
591,19	731,77
591,448	720,77
591,707	740,77
591,965	701,77
592,223	720,77
592,482	720,77
592,74	695,77
592,998	714,77
593,257	702,77
593,515	689,77
593,773	666,77
594,031	649,77
594,29	681,77
594,548	671,77
594,806	642,77
595,064	670,77
595,323	643,77
595,581	627,77
595,839	639,77
596,097	646,77
596,355	615,77
596,613	619,77
596,872	592,77
597,13	615,77
597,388	595,77
597,646	602,77
597,904	592,77
598,162	586,77
598,42	592,77
598,679	550,77
598,937	561,77
599,195	558,77
599,453	530,77
599,711	553,77
599,969	537,77
600,227	524,77
600,485	506,77
600,743	505,77
601,001	489,77
601,259	519,77
601,517	481,77
601,775	463,77
602,033	494,77
602,291	482,77
602,549	469,77
602,807	462,77
603,065	477,77
603,323	449,77
603,581	444,77
603,839	426,77
604,097	432,77
604,355	425,77
604,613	437,77
604,871	388,77
605,128	383,77
605,386	374,77
605,644	386,77
605,902	390,77
606,16	373,77
606,418	391,77
606,676	376,77
606,933	360,77
607,191	357,77
607,449	334,77
607,707	341,77
607,965	323,77
608,223	328,77
608,48	321,77
608,738	301,77
608,996	346,77
609,254	323,77
609,511	328,77
609,769	295,77
610,027	303,77
610,285	291,77
610,542	296,77
610,8	283,77
611,058	281,77
611,315	281,77
611,573	279,77
611,831	262,77
612,088	274,77
612,346	261,77
612,604	273,77
612,861	262,77
613,119	245,77
613,376	251,77
613,634	245,77
613,892	244,77
614,149	241,77
614,407	232,77
614,664	200,77
614,922	234,77
615,18	227,77
615,437	202,77
615,695	206,77
615,952	225,77
616,21	208,77
616,467	228,77
616,725	205,77
616,982	200,77
617,24	207,77
617,497	194,77
617,755	200,77
618,012	193,77
618,27	205,77
618,527	175,77
618,784	181,77
619,042	176,77
619,299	197,77
619,557	176,77
619,814	168,77
620,071	167,77
620,329	175,77
620,586	175,77
620,844	163,77
621,101	177,77
621,358	129,77
621,616	155,77
621,873	152,77
622,13	157,77
622,388	147,77
622,645	131,77
622,902	140,77
623,159	146,77
623,417	136,77
623,674	123,77
623,931	134,77
624,188	135,77
624,446	129,77
624,703	121,77
624,96	116,77
625,217	130,77
625,475	122,77
625,732	130,77
625,989	141,77
626,246	109,77
626,503	104,77
626,761	130,77
627,018	102,77
627,275	105,77
627,532	104,77
627,789	105,77
628,046	109,77
628,303	114,77
628,56	107,77
628,818	102,77
629,075	126,77
629,332	102,77
629,589	108,77
629,846	87,77
630,103	95,77
630,36	105,77
630,617	83,77
630,874	91,77
631,131	89,77
631,388	84,77
631,645	90,77
631,902	86,77
632,159	81,77
632,416	80,77
632,673	74,77
632,93	80,77
633,187	73,77
633,444	92,77
633,701	83,77
633,958	89,77
634,215	88,77
634,471	58,77
634,728	63,77
634,985	73,77
635,242	76,77
635,499	68,77
635,756	65,77
636,013	80,77
636,27	59,77
636,526	80,77
636,783	60,77
637,04	83,77
637,297	60,77
637,554	66,77
637,81	72,77
638,067	67,77
638,324	62,77
638,581	79,77
638,838	52,77
639,094	59,77
639,351	79,77
639,608	62,77
639,864	47,77
640,121	53,77
640,378	53,77
640,635	54,77
640,891	50,77
641,148	56,77
641,405	61,77
641,661	61,77
641,918	55,77
642,175	54,77
642,431	41,77
642,688	55,77
642,944	44,77
643,201	47,77
643,458	61,77
643,714	57,77
643,971	47,77
644,227	53,77
644,484	65,77
644,741	55,77
644,997	56,77
645,254	54,77
645,51	49,77
645,767	52,77
646,023	48,77
646,28	67,77
646,536	55,77
646,793	53,77
647,049	63,77
647,306	49,77
647,562	32,77
647,819	38,77
648,075	46,77
648,331	41,77
648,588	46,77
648,844	38,77
649,101	44,77
649,357	50,77
649,613	38,77
649,87	41,77
650,126	46,77
650,383	48,77
650,639	41,77
650,895	23,77
651,152	29,77
651,408	42,77
651,664	25,77
651,921	17,77
652,177	26,77
652,433	32,77
652,689	44,77
652,946	32,77
653,202	46,77
653,458	40,77
653,715	29,77
653,971	25,77
654,227	36,77
654,483	40,77
654,739	32,77
654,996	20,77
655,252	36,77
655,508	30,77
655,764	32,77
656,02	37,77
656,277	23,77
656,533	28,77
656,789	41,77
657,045	42,77
657,301	21,77
657,557	27,77
657,813	43,77
658,07	19,77
658,326	20,77
658,582	25,77
658,838	26,77
659,094	25,77
659,35	21,77
659,606	29,77
659,862	26,77
660,118	22,77
660,374	26,77
660,63	16,77
660,886	16,77
661,142	16,77
661,398	16,77
661,654	25,77
661,91	21,77
662,166	21,77
662,422	14,77
662,678	21,77
662,934	23,77
663,19	10,77
663,446	13,77
663,702	23,77
663,957	27,77
664,213	17,77
664,469	14,77
664,725	32,77
664,981	24,77
665,237	20,77
665,493	18,77
665,749	27,77
666,004	19,77
666,26	8,77
666,516	29,77
666,772	14,77
667,028	15,77
667,283	23,77
667,539	20,77
667,795	17,77
668,051	34,77
668,307	34,77
668,562	33,77
668,818	30,77
669,074	20,77
669,329	8,77
669,585	22,77
669,841	16,77
670,097	14,77
670,352	24,77
670,608	31,77
670,864	2,77
671,119	1,77
671,375	20,77
671,631	20,77
671,886	29,77
672,142	14,77
672,397	42,77
672,653	24,77
672,909	38,77
673,164	14,77
673,42	28,77
673,675	32,77
673,931	27,77
674,186	23,77
674,442	21,77
674,698	14,77
674,953	37,77
675,209	11,77
675,464	16,77
675,72	21,77
675,975	26,77
676,231	21,77
676,486	21,77
676,742	17,77
676,997	9,77
677,252	17,77
677,508	15,77
677,763	32,77
678,019	22,77
678,274	19,77
678,53	7,77
678,785	11,77
679,04	31,77
679,296	1,77
679,551	12,77
679,806	7,77
680,062	28,77
680,317	18,77
680,572	26,77
680,828	-0,23
681,083	21,77
681,338	8,77
681,594	14,77
681,849	8,77
682,104	17,77
682,36	26,77
682,615	17,77
682,87	20,77
683,125	9,77
683,381	11,77
683,636	16,77
683,891	14,77
684,146	21,77
684,401	26,77
684,657	6,77
684,912	15,77
685,167	28,77
685,422	21,77
685,677	8,77
685,932	19,77
686,188	26,77
686,443	12,77
686,698	20,77
686,953	4,77
687,208	12,77
687,463	7,77
687,718	3,77
687,973	9,77
688,228	7,77
688,483	10,77
688,739	13,77
688,994	17,77
689,249	-2,23
689,504	17,77
689,759	49,77
690,014	7,77
690,269	10,77
690,524	7,77
690,779	3,77
691,034	-2,23
691,289	-3,23
691,544	-2,23
691,798	27,77
692,053	32,77
692,308	22,77
692,563	3,77
692,818	12,77
693,073	13,77
693,328	27,77
693,583	25,77
693,838	18,77
694,093	3,77
694,347	5,77
694,602	22,77
694,857	16,77
695,112	21,77
695,367	28,77
695,622	18,77
695,876	9,77
696,131	4,77
696,386	21,77
696,641	19,77
696,896	16,77
697,15	5,77
697,405	-1,23
697,66	28,77
697,915	14,77
698,169	27,77
698,424	13,77
698,679	9,77
698,933	12,77
699,188	10,77
699,443	5,77
699,698	22,77
699,952	5,77
700,207	-5,23
700,461	20,77
700,716	16,77
700,971	20,77
701,225	-1,23
701,48	11,77
701,735	10,77
701,989	14,77
702,244	6,77
702,498	6,77
702,753	13,77
703,007	14,77
703,262	6,77
703,517	14,77
703,771	20,77
704,026	9,77
704,28	0,77
704,535	19,77
704,789	-3,23
705,044	6,77
705,298	5,77
705,553	16,77
705,807	14,77
706,062	17,77
706,316	10,77
706,57	1,77
706,825	16,77
707,079	27,77
707,334	5,77
707,588	15,77
707,842	14,77
708,097	13,77
708,351	15,77
708,606	21,77
708,86	8,77
709,114	14,77
709,369	1,77
709,623	13,77
709,877	3,77
710,132	12,77
710,386	8,77
710,64	12,77
710,895	9,77
711,149	23,77
711,403	12,77
711,657	29,77
711,912	6,77
712,166	4,77
712,42	5,77
712,674	15,77
712,928	10,77
713,183	0,77
713,437	-7,23
713,691	14,77
713,945	4,77
714,199	6,77
714,454	23,77
714,708	11,77
714,962	3,77
715,216	14,77
715,47	7,77
715,724	12,77
715,978	10,77
716,233	2,77
716,487	10,77
716,741	13,77
716,995	13,77
717,249	1,77
717,503	21,77
717,757	4,77
718,011	12,77
718,265	17,77
718,519	3,77
718,773	11,77
719,027	13,77
719,281	6,77
719,535	5,77
719,789	20,77
720,043	18,77
720,297	18,77
720,551	12,77
720,805	15,77
721,059	20,77
721,313	-3,23
721,567	5,77
721,821	11,77
722,074	9,77
722,328	-3,23
722,582	17,77
722,836	12,77
723,09	-2,23
723,344	5,77
723,598	16,77
723,851	0,77
724,105	19,77
724,359	11,77
724,613	9,77
724,867	6,77
725,121	22,77
725,374	25,77
725,628	-1,23
725,882	-1,23
726,136	22,77
726,389	20,77
726,643	22,77
726,897	3,77
727,151	-7,23
727,404	-1,23
727,658	15,77
727,912	12,77
728,165	14,77
728,419	12,77
728,673	-14,23
728,926	-3,23
729,18	9,77
729,434	12,77
729,687	17,77
729,941	18,77
730,195	6,77
730,448	4,77
730,702	4,77
730,955	-2,23
731,209	13,77
731,462	8,77
731,716	4,77
731,97	3,77
732,223	16,77
732,477	9,77
732,73	21,77
732,984	2,77
733,237	7,77
733,491	13,77
733,744	1,77
733,998	5,77
734,251	19,77
734,505	16,77
734,758	5,77
735,012	1,77
735,265	4,77
735,518	18,77
735,772	10,77
736,025	21,77
736,279	3,77
736,532	4,77
736,785	4,77
737,039	27,77
737,292	22,77
737,546	12,77
737,799	2,77
738,052	6,77
738,306	14,77
738,559	8,77
738,812	11,77
739,066	-9,23
739,319	9,77
739,572	8,77
739,825	10,77
740,079	15,77
740,332	7,77
740,585	16,77
740,838	9,77
741,092	24,77
741,345	1,77
741,598	6,77
741,851	3,77
742,104	8,77
742,358	16,77
742,611	14,77
742,864	11,77
743,117	-1,23
743,37	9,77
743,623	4,77
743,877	8,77
744,13	2,77
744,383	16,77
744,636	-0,23
744,889	6,77
745,142	2,77
745,395	10,77
745,648	4,77
745,901	0,77
746,154	16,77
746,408	14,77
746,661	8,77
746,914	-13,23
747,167	-6,23
747,42	8,77
747,673	4,77
747,926	15,77
748,179	15,77
748,432	5,77
748,685	3,77
748,938	38,77
749,19	19,77
749,443	17,77
749,696	12,77
749,949	25,77
750,202	18,77
750,455	13,77
750,708	12,77
750,961	13,77
751,214	44,77
751,467	4,77
751,719	-3,23
751,972	-3,23
752,225	11,77
752,478	7,77
752,731	-2,23
752,984	22,77
753,236	34,77
753,489	3,77
753,742	4,77
753,995	-2,23
754,248	5,77
754,5	11,77
754,753	5,77
755,006	23,77
755,259	18,77
755,511	7,77
755,764	-6,23
756,017	9,77
756,269	13,77
756,522	7,77
756,775	24,77
757,027	7,77
757,28	3,77
757,533	1,77
757,785	0,77
758,038	7,77
758,291	6,77
758,543	-4,23
758,796	5,77
759,049	5,77
759,301	0,77
759,554	9,77
759,806	-0,23
760,059	13,77
760,311	17,77
760,564	4,77
760,817	-7,23
761,069	-3,23
761,322	5,77
761,574	7,77
761,827	1,77
762,079	2,77
762,332	11,77
762,584	3,77
762,837	6,77
763,089	14,77
763,341	-5,23
763,594	13,77
763,846	8,77
764,099	0,77
764,351	5,77
764,604	16,77
764,856	-0,23
765,108	16,77
765,361	10,77
765,613	17,77
765,865	6,77
766,118	16,77
766,37	13,77
766,623	-0,23
766,875	-1,23
767,127	4,77
767,379	11,77
767,632	1,77
767,884	15,77
768,136	1,77
768,389	-5,23
768,641	-11,23
768,893	-12,23
769,145	-0,23
769,398	16,77
769,65	8,77
769,902	10,77
770,154	5,77
770,406	13,77
770,659	-2,23
770,911	-2,23
771,163	13,77
771,415	12,77
771,667	33,77
771,919	19,77
772,172	15,77
772,424	-16,23
772,676	9,77
772,928	10,77
773,18	19,77
773,432	8,77
773,684	5,77
773,936	4,77
774,188	10,77
774,44	6,77
774,693	9,77
774,945	6,77
775,197	-6,23
775,449	15,77
775,701	-2,23
775,953	5,77
776,205	3,77
776,457	-8,23
776,709	0,77
776,961	6,77
777,213	7,77
777,464	-0,23
777,716	-2,23
777,968	-1,23
778,22	-2,23
778,472	14,77
778,724	5,77
778,976	4,77
779,228	-3,23
779,48	10,77
779,732	5,77
779,984	3,77
780,235	1,77
780,487	10,77
780,739	10,77
780,991	-14,23
781,243	-5,23
781,494	4,77
781,746	6,77
781,998	9,77
782,25	-7,23
782,502	6,77
782,753	0,77
783,005	-2,23
783,257	3,77
783,509	-6,23
783,76	-3,23
784,012	13,77
784,264	1,77
784,515	2,77
784,767	1,77
785,019	3,77
785,271	0,77
785,522	3,77
785,774	12,77
786,026	0,77
786,277	-10,23
786,529	-1,23
786,78	8,77
787,032	6,77
787,284	15,77
787,535	18,77
787,787	6,77
788,038	-8,23
788,29	3,77
788,541	10,77
788,793	-2,23
789,045	11,77
789,296	5,77
789,548	-15,23
789,799	-6,23
790,051	-0,23
790,302	1,77
790,554	8,77
790,805	-6,23
791,057	16,77
791,308	6,77
791,559	-6,23
791,811	12,77
792,062	17,77
792,314	-2,23
792,565	12,77
792,817	8,77
793,068	9,77
793,319	-2,23
793,571	2,77
793,822	7,77
794,073	16,77
794,325	0,77
794,576	11,77
794,827	0,77
795,079	-0,23
795,33	5,77
795,581	3,77
795,833	-0,23
796,084	10,77
796,335	3,77
796,587	-7,23
796,838	-3,23
797,089	3,77
797,34	-6,23
797,592	-0,23
797,843	-1,23
798,094	0,77
798,345	-5,23
798,596	9,77
798,848	16,77
799,099	5,77
799,35	-1,23
799,601	20,77
799,852	5,77
800,103	-3,23
800,355	13,77
800,606	44,77
800,857	1,77
801,108	-2,23
801,359	17,77
801,61	-6,23
801,861	-9,23
802,112	2,77
802,363	-5,23
802,614	-11,23
802,865	-3,23
803,116	1,77
803,367	0,77
803,618	4,77
803,869	-0,23
804,12	-3,23
804,371	-5,23
804,622	3,77
804,873	6,77
805,124	0,77
805,375	2,77
805,626	-14,23
805,877	-0,23
806,128	3,77
806,379	-10,23
806,63	-1,23
806,881	3,77
807,132	0,77
807,383	-15,23
807,634	-12,23
807,884	1,77
808,135	22,77
808,386	-12,23
808,637	6,77
808,888	-2,23
809,139	-9,23
809,389	3,77
809,64	0,77
809,891	3,77
810,142	-17,23
810,393	-2,23
810,643	1,77
810,894	0,77
811,145	-5,23
811,396	0,77
811,646	-7,23
811,897	-6,23
812,148	21,77
812,398	-1,23
812,649	12,77
812,9	-4,23
813,151	5,77
813,401	-2,23
813,652	40,77
813,902	25,77
814,153	8,77
814,404	14,77
814,654	6,77
814,905	7,77
815,156	18,77
815,406	4,77
815,657	2,77
815,907	8,77
816,158	-7,23
816,408	-10,23
816,659	-8,23
816,91	3,77
817,16	1,77
817,411	-5,23
817,661	9,77
817,912	3,77
818,162	-5,23
818,413	3,77
818,663	1,77
818,914	-8,23
819,164	-0,23
819,414	-12,23
819,665	6,77
819,915	14,77
820,166	14,77
820,416	-1,23
820,667	9,77
820,917	7,77
821,167	-3,23
821,418	8,77
821,668	-10,23
821,918	2,77
822,169	2,77
822,419	-0,23
822,67	-12,23
822,92	-4,23
823,17	-10,23
823,42	-3,23
823,671	-2,23
823,921	2,77
824,171	-6,23
824,422	-10,23
824,672	-4,23
824,922	5,77
825,172	-3,23
825,423	-0,23
825,673	3,77
825,923	-7,23
826,173	8,77
826,423	-7,23
826,674	-11,23
826,924	0,77
827,174	-2,23
827,424	3,77
827,674	-3,23
827,924	-1,23
828,175	3,77
828,425	-1,23
828,675	-15,23
828,925	0,77
829,175	4,77
829,425	2,77
829,675	-0,23
829,925	4,77
830,175	3,77
830,425	-4,23
830,675	-2,23
830,925	10,77
831,175	17,77
831,425	4,77
831,676	-3,23
831,926	12,77
832,175	-0,23
832,425	-5,23
832,675	1,77
832,925	18,77
833,175	-7,23
833,425	-9,23
833,675	-9,23
833,925	16,77
834,175	8,77
834,425	-3,23
834,675	1,77
834,925	4,77
835,175	5,77
835,425	-10,23
835,674	-6,23
835,924	-15,23
836,174	-20,23
836,424	-10,23
836,674	4,77
836,924	1,77
837,173	-0,23
837,423	-2,23
837,673	-8,23
837,923	-14,23
838,173	-2,23
838,422	-9,23
838,672	11,77
838,922	6,77
839,172	0,77
839,421	17,77
839,671	2,77
839,921	-25,23
840,17	-5,23
840,42	-3,23
840,67	-13,23
840,919	-1,23
841,169	4,77
841,419	0,77
841,668	-12,23
841,918	-24,23
842,168	4,77
842,417	-4,23
842,667	10,77
842,916	-3,23
843,166	-3,23
843,416	-8,23
843,665	-7,23
843,915	-1,23
844,164	9,77
844,414	18,77
844,663	8,77
844,913	7,77
845,162	5,77
845,412	6,77
845,662	4,77
845,911	-1,23
846,16	1,77
846,41	-6,23
846,659	-10,23
846,909	-1,23
847,158	-12,23
847,408	2,77
847,657	4,77
847,907	-10,23
848,156	-7,23
848,405	-3,23
848,655	7,77
848,904	4,77
849,154	-9,23
849,403	1,77
849,652	8,77
849,902	-6,23
850,151	3,77
850,4	-10,23
850,65	-9,23
850,899	2,77
851,148	1,77
851,398	-5,23
851,647	20,77
851,896	-5,23
852,145	-3,23
852,395	2,77
852,644	5,77
852,893	-14,23
853,142	10,77
853,392	-11,23
853,641	-6,23
853,89	12,77
854,139	20,77
854,388	-8,23
854,637	7,77
854,887	-3,23
855,136	-17,23
855,385	-3,23
855,634	-2,23
855,883	15,77
856,132	3,77
856,381	-15,23
856,631	5,77
856,88	3,77
857,129	6,77
857,378	-3,23
857,627	-3,23
857,876	-5,23
858,125	8,77
858,374	5,77
858,623	-0,23
858,872	17,77
859,121	8,77
859,37	-7,23
859,619	2,77
859,868	-1,23
860,117	-19,23
860,366	-8,23
860,615	13,77
860,864	-15,23
861,113	0,77
861,362	-1,23
861,611	3,77
861,86	0,77
862,108	-2,23
862,357	-1,23
862,606	-5,23
862,855	-0,23
863,104	-13,23
863,353	0,77
863,602	1,77
863,851	49,77
864,099	5,77
864,348	-11,23
864,597	16,77
864,846	4,77
865,095	7,77
865,343	-9,23
865,592	-18,23
865,841	-4,23
866,09	11,77
866,338	10,77
866,587	0,77
866,836	2,77
867,085	0,77
867,333	-1,23
867,582	-0,23
867,831	14,77
868,079	-3,23
868,328	4,77
868,577	2,77
868,825	-1,23
869,074	0,77
869,323	-16,23
869,571	-14,23
869,82	-7,23
870,068	16,77
870,317	-0,23
870,566	1,77
870,814	-10,23
871,063	-10,23
871,311	8,77
871,56	-4,23
871,808	-0,23
872,057	8,77
872,306	-12,23
872,554	-5,23
872,803	-3,23
873,051	-4,23
873,3	1,77
873,548	14,77
873,797	4,77
874,045	-1,23
874,293	-0,23
874,542	-2,23
874,79	-2,23
875,039	-12,23
875,287	-18,23
875,536	-2,23
875,784	-13,23
876,032	-1,23
876,281	-2,23
876,529	2,77
876,777	-3,23
877,026	0,77
877,274	0,77
877,523	12,77
877,771	4,77
878,019	-6,23
878,267	-3,23
878,516	-2,23
878,764	3,77
879,012	16,77
879,261	-1,23
879,509	-2,23
879,757	1,77
880,005	-6,23
880,254	-11,23
880,502	-3,23
880,75	-6,23
880,998	-4,23
881,246	-0,23
881,495	-6,23
881,743	-2,23
881,991	-2,23
882,239	3,77
882,487	0,77
882,735	6,77
882,984	-8,23
883,232	3,77
883,48	-1,23
883,728	-4,23
883,976	-8,23
884,224	-5,23
884,472	-6,23
884,72	1,77
884,968	5,77
885,216	11,77
885,464	1,77
885,712	-0,23
885,96	-2,23
886,208	-5,23
886,457	4,77
886,704	4,77
886,952	-8,23
887,2	1,77
887,448	-6,23
887,696	0,77
887,944	19,77
888,192	0,77
888,44	0,77
888,688	-8,23
888,936	22,77
889,184	17,77
889,432	-6,23
889,68	-7,23
889,928	4,77
890,175	-2,23
890,423	12,77
890,671	-10,23
890,919	14,77
891,167	14,77
891,415	-3,23
891,663	0,77
891,91	-10,23
892,158	-5,23
892,406	-8,23
892,654	-18,23
892,901	-13,23
893,149	1,77
893,397	-14,23
893,645	-5,23
893,892	-3,23
894,14	2,77
894,388	5,77
894,636	4,77
894,883	-22,23
895,131	1,77
895,379	-9,23
895,626	13,77
895,874	5,77
896,122	3,77
896,369	1,77
896,617	-3,23
896,864	-3,23
897,112	-13,23
897,36	-15,23
897,607	2,77
897,855	-0,23
898,102	12,77
898,35	5,77
898,598	7,77
898,845	9,77
899,093	-5,23
899,34	-0,23
899,588	-1,23
899,835	3,77
900,083	-1,23
900,33	2,77
900,578	15,77
900,825	6,77
901,073	-2,23
901,32	6,77
901,568	2,77
901,815	-4,23
902,062	-8,23
902,31	2,77
902,557	-0,23
902,805	31,77
903,052	-4,23
903,299	4,77
903,547	-3,23
903,794	16,77
904,042	-1,23
904,289	1,77
904,536	-0,23
904,784	-22,23
905,031	-0,23
905,278	-11,23
905,525	6,77
905,773	4,77
906,02	-1,23
906,267	2,77
906,515	3,77
906,762	0,77
907,009	8,77
907,256	3,77
907,504	4,77
907,751	13,77
907,998	-10,23
908,245	-1,23
908,492	1,77
908,74	-1,23
908,987	10,77
909,234	-1,23
909,481	-14,23
909,728	-3,23
909,975	8,77
910,222	12,77
910,47	-5,23
910,717	-3,23
910,964	3,77
911,211	-4,23
911,458	-16,23
911,705	3,77
911,952	-3,23
912,199	-7,23
912,446	-2,23
912,693	1,77
912,94	-4,23
913,187	-6,23
913,434	8,77
913,681	-2,23
913,928	-10,23
914,175	7,77
914,422	5,77
914,669	-9,23
914,916	0,77
915,163	-0,23
915,41	-8,23
915,657	-5,23
915,904	12,77
916,151	13,77
916,398	10,77
916,644	-12,23
916,891	4,77
917,138	-3,23
917,385	9,77
917,632	4,77
917,879	-5,23
918,126	2,77
918,372	-7,23
918,619	3,77
918,866	11,77
919,113	-2,23
919,36	1,77
919,606	7,77
919,853	10,77
920,1	1,77
920,347	-16,23
920,593	1,77
920,84	-8,23
921,087	3,77
921,334	2,77
921,58	-10,23
921,827	11,77
922,074	-1,23
922,32	-2,23
922,567	9,77
922,814	16,77
923,06	5,77
923,307	8,77
923,554	6,77
923,8	1,77
924,047	3,77
924,293	-1,23
924,54	0,77
924,787	-8,23
925,033	-8,23
925,28	0,77
925,526	14,77
925,773	14,77
926,019	-2,23
926,266	-2,23
926,512	-2,23
926,759	0,77
927,005	7,77
927,252	5,77
927,498	0,77
927,745	-3,23
927,991	0,77
928,238	7,77
928,484	13,77
928,731	12,77
928,977	5,77
929,223	33,77
929,47	-10,23
929,716	-9,23
929,963	-13,23
930,209	2,77
930,455	10,77
930,702	-2,23
930,948	-7,23
931,194	0,77
931,441	13,77
931,687	-9,23
931,933	11,77
932,18	-2,23
932,426	-8,23
932,672	1,77
932,919	12,77
933,165	-8,23
933,411	12,77
933,657	9,77
933,904	3,77
934,15	-7,23
934,396	0,77
934,642	15,77
934,889	1,77
935,135	6,77
935,381	12,77
935,627	2,77
935,873	0,77
936,119	6,77
936,366	3,77
936,612	5,77
936,858	7,77
937,104	3,77
937,35	10,77
937,596	8,77
937,842	-16,23
938,088	-9,23
938,334	-3,23
938,58	1,77
938,827	0,77
939,073	4,77
939,319	-10,23
939,565	-1,23
939,811	-2,23
940,057	-6,23
940,303	1,77
940,549	-14,23
940,795	2,77
941,041	-11,23
941,287	7,77
941,533	15,77
941,778	8,77
942,024	-15,23
942,27	0,77
942,516	-0,23
942,762	8,77
943,008	0,77
943,254	8,77
943,5	-8,23
943,746	1,77
943,992	8,77
944,237	12,77
944,483	-5,23
944,729	-0,23
944,975	3,77
945,221	5,77
945,467	3,77
945,712	6,77
945,958	2,77
946,204	-3,23
946,45	10,77
946,695	4,77
946,941	16,77
947,187	17,77
947,433	-2,23
947,678	1,77
947,924	-8,23
948,17	2,77
948,415	0,77
948,661	1,77
948,907	19,77
949,153	5,77
949,398	11,77
949,644	6,77
949,889	0,77
950,135	-9,23
950,381	-6,23
950,626	3,77
950,872	10,77
951,118	7,77
951,363	7,77
951,609	18,77
951,854	9,77
952,1	7,77
952,345	-6,23
952,591	15,77
952,836	2,77
953,082	10,77
953,327	2,77
953,573	-5,23
953,818	3,77
954,064	1,77
954,309	5,77
954,555	6,77
954,8	-4,23
955,046	-3,23
955,291	-1,23
955,537	2,77
955,782	-12,23
956,027	0,77
956,273	3,77
956,518	7,77
956,764	-1,23
957,009	8,77
957,254	6,77
957,5	13,77
957,745	0,77
957,99	-1,23
958,236	1,77
958,481	10,77
958,726	16,77
958,972	-3,23
959,217	-7,23
959,462	12,77
959,707	8,77
959,953	8,77
960,198	1,77
960,443	5,77
960,688	8,77
960,934	18,77
961,179	9,77
961,424	-13,23
961,669	11,77
961,914	3,77
962,16	1,77
962,405	2,77
962,65	13,77
962,895	6,77
963,14	5,77
963,385	-1,23
963,63	-6,23
963,876	4,77
964,121	8,77
964,366	-6,23
964,611	13,77
964,856	-11,23
965,101	-19,23
965,346	7,77
965,591	-6,23
965,836	1,77
966,081	-11,23
966,326	-3,23
966,571	11,77
966,816	-5,23
967,061	1,77
967,306	6,77
967,551	8,77
967,796	-8,23
968,041	3,77
968,286	8,77
968,531	-1,23
968,776	-20,23
969,021	-1,23
969,266	12,77
969,511	-7,23
969,755	-6,23
970	-1,23
970,245	-0,23
970,49	-3,23
970,735	16,77
970,98	10,77
971,225	0,77
971,469	12,77
971,714	0,77
971,959	-13,23
972,204	-11,23
972,449	9,77
972,693	-13,23
972,938	-4,23
973,183	5,77
973,428	-1,23
973,672	-6,23
973,917	1,77
974,162	6,77
974,407	19,77
974,651	0,77
974,896	16,77
975,141	9,77
975,385	0,77
975,63	9,77
975,875	1,77
976,119	52,77
976,364	8,77
976,608	15,77
976,853	-9,23
977,098	10,77
977,342	-4,23
977,587	11,77
977,831	-0,23
978,076	14,77
978,321	-7,23
978,565	10,77
978,81	12,77
979,054	5,77
979,299	-6,23
979,543	-5,23
979,788	16,77
980,032	3,77
980,277	20,77
980,521	12,77
980,766	4,77
981,01	0,77
981,255	-11,23
981,499	2,77
981,743	-10,23
981,988	0,77
982,232	5,77
982,477	5,77
982,721	-6,23
982,965	-1,23
983,21	5,77
983,454	0,77
983,699	5,77
983,943	11,77
984,187	5,77
984,432	9,77
984,676	20,77
984,92	5,77
985,165	-6,23
985,409	0,77
985,653	9,77
985,897	6,77
986,142	3,77
986,386	0,77
986,63	12,77
986,874	0,77
987,119	0,77
987,363	0,77
987,607	19,77
987,851	10,77
988,095	11,77
988,34	-11,23
988,584	11,77
988,828	0,77
989,072	2,77
989,316	-9,23
989,56	0,77
989,804	7,77
990,049	-3,23
990,293	-9,23
990,537	-9,23
990,781	1,77
991,025	5,77
991,269	5,77
991,513	4,77
991,757	8,77
992,001	-3,23
992,245	-1,23
992,489	0,77
992,733	9,77
992,977	3,77
993,221	-7,23
993,465	-14,23
993,709	-13,23
993,953	0,77
994,197	-14,23
994,441	-8,23
994,685	-7,23
994,929	-7,23
995,173	14,77
995,417	0,77
995,661	-6,23
995,904	-1,23
996,148	0,77
996,392	-1,23
996,636	-14,23
996,88	13,77
997,124	16,77
997,368	11,77
997,611	27,77
997,855	2,77
998,099	16,77
998,343	8,77
998,587	13,77
998,83	16,77
999,074	2,77
999,318	-1,23
999,562	4,77
999,805	0,77
1000,049	-8,23
1000,293	-3,23
1000,537	13,77
1000,78	14,77
1001,024	0,77
1001,268	-7,23
1001,511	7,77
1001,755	-7,23
1001,999	6,77
1002,242	0,77
1002,486	2,77
1002,73	11,77
1002,973	-2,23
1003,217	9,77
1003,46	-5,23
1003,704	2,77
1003,948	17,77
1004,191	5,77
1004,435	2,77
1004,678	17,77
1004,922	7,77
1005,165	6,77
1005,409	17,77
1005,652	4,77
1005,896	4,77
1006,139	10,77
1006,383	3,77
1006,626	5,77
1006,87	-1,23
1007,113	-12,23
1007,357	0,77
1007,6	2,77
1007,844	2,77
1008,087	10,77
1008,33	-4,23
1008,574	-2,23
1008,817	-3,23
1009,061	-1,23
1009,304	-3,23
1009,547	-13,23
1009,791	14,77
1010,034	0,77
1010,277	20,77
1010,521	9,77
1010,764	1,77
1011,007	1,77
1011,251	3,77
1011,494	-10,23
1011,737	0,77
1011,98	-5,23
1012,224	0,77
1012,467	5,77
1012,71	-0,23
1012,953	-3,23
1013,197	1,77
1013,44	2,77
1013,683	8,77
1013,926	-5,23
1014,169	3,77
1014,413	7,77
1014,656	2,77
1014,899	-9,23
1015,142	-2,23
1015,385	11,77
1015,628	-3,23
1015,871	-8,23
1016,115	-6,23
1016,358	3,77
1016,601	6,77
1016,844	5,77
1017,087	-9,23
1017,33	4,77
1017,573	-9,23
1017,816	-16,23
1018,059	13,77
1018,302	-3,23
1018,545	-2,23
1018,788	-2,23
1019,031	0,77
1019,274	-7,23
1019,517	-16,23
1019,76	-4,23
1020,003	0,77
1020,246	0,77
1020,489	4,77
1020,732	-12,23
1020,975	-5,23
1021,218	7,77
1021,461	-8,23
1021,703	3,77
1021,946	-9,23
1022,189	-6,23
1022,432	10,77
1022,675	15,77
1022,918	15,77
1023,161	9,77
1023,403	12,77
1023,646	-7,23
1023,889	-1,23
1024,132	4,77
1024,375	14,77
1024,617	-1,23
1024,86	-12,23
1025,103	0,77
1025,346	-3,23
1025,588	-1,23
1025,831	-0,23
1026,074	-6,23
1026,317	9,77
1026,559	-0,23
1026,802	3,77
1027,045	-8,23
1027,287	-7,23
1027,53	-3,23
1027,773	2,77
1028,015	-2,23
1028,258	-1,23
1028,501	-6,23
1028,743	-2,23
1028,986	-6,23
1029,228	12,77
1029,471	0,77
1029,714	8,77
1029,956	-6,23
1030,199	-5,23
1030,441	0,77
1030,684	14,77
1030,926	0,77
1031,169	-2,23
1031,411	-8,23
1031,654	-1,23
1031,896	-3,23
1032,139	3,77
1032,381	0,77
1032,624	3,77
1032,866	-7,23
1033,109	8,77
1033,351	-0,23
1033,594	12,77
1033,836	8,77
1034,079	-4,23
1034,321	-8,23
1034,563	6,77
1034,806	-6,23
1035,048	-7,23
1035,29	-2,23
1035,533	-5,23
1035,775	-5,23
1036,018	-13,23
1036,26	0,77
1036,502	7,77
1036,744	1,77
1036,987	-13,23
1037,229	11,77
1037,471	-19,23
1037,714	16,77
1037,956	-15,23
1038,198	-20,23
1038,44	-12,23
1038,683	0,77
1038,925	0,77
1039,167	-6,23
1039,409	1,77
1039,651	0,77
1039,894	-0,23
1040,136	-10,23
1040,378	7,77
1040,62	9,77
1040,862	13,77
1041,104	3,77
1041,347	-3,23
1041,589	-4,23
1041,831	6,77
1042,073	0,77
1042,315	-5,23
1042,557	-8,23
1042,799	-3,23
1043,041	5,77
1043,283	-6,23
1043,525	3,77
1043,767	4,77
1044,009	2,77
1044,251	-2,23
1044,493	-10,23
1044,735	-3,23
1044,977	3,77
1045,219	-3,23
1045,461	-14,23
1045,703	-2,23
1045,945	3,77
1046,187	-5,23
1046,429	2,77
1046,671	-17,23
1046,913	14,77
1047,155	2,77
1047,397	-8,23
1047,639	-7,23
1047,881	-3,23
1048,122	-4,23
1048,364	-2,23
1048,606	-10,23
1048,848	-14,23
1049,09	-13,23
1049,332	-13,23
1049,573	-13,23
1049,815	-7,23
1050,057	-8,23
1050,299	-3,23
1050,541	8,77
1050,782	14,77
1051,024	-14,23
1051,266	5,77
1051,508	9,77
1051,749	18,77
1051,991	7,77
1052,233	7,77
1052,474	-6,23
1052,716	-11,23
1052,958	-13,23
1053,199	6,77
1053,441	-3,23
1053,683	-14,23
1053,924	-3,23
1054,166	2,77
1054,408	-16,23
1054,649	-12,23
1054,891	-0,23
1055,132	1,77
1055,374	-3,23
1055,616	-14,23
1055,857	-16,23
1056,099	-9,23
1056,34	-7,23
1056,582	-15,23
1056,823	5,77
1057,065	0,77
1057,306	7,77
1057,548	2,77
1057,789	0,77
1058,031	3,77
1058,272	-0,23
1058,514	9,77
1058,755	-9,23
1058,997	-6,23
1059,238	6,77
1059,479	1,77
1059,721	-7,23
1059,962	-0,23
1060,204	-1,23
1060,445	1,77
1060,686	-12,23
1060,928	5,77
1061,169	1,77
1061,41	-6,23
1061,652	0,77
1061,893	-4,23
1062,134	16,77
1062,376	-14,23
1062,617	2,77
1062,858	7,77
1063,1	4,77
1063,341	-4,23
1063,582	-0,23
1063,823	9,77
1064,065	-12,23
1064,306	-6,23
1064,547	12,77
1064,788	-3,23
1065,029	-4,23
1065,271	-10,23
1065,512	-0,23
1065,753	-5,23
1065,994	-1,23
1066,235	2,77
1066,476	-2,23
1066,718	-12,23
1066,959	6,77
1067,2	-3,23
1067,441	9,77
1067,682	-0,23
1067,923	9,77
1068,164	-11,23
1068,405	-4,23
1068,646	-9,23
1068,887	8,77
1069,128	0,77
1069,369	1,77
1069,61	-1,23
1069,851	5,77
1070,092	-5,23
1070,333	-14,23
1070,574	-7,23
1070,815	-5,23
1071,056	1,77
1071,297	15,77
1071,538	1,77
1071,779	0,77
1072,02	-12,23
1072,261	5,77
1072,502	5,77
1072,743	2,77
1072,984	2,77
1073,225	-2,23
1073,466	-8,23
1073,706	3,77
1073,947	-16,23
1074,188	2,77
1074,429	0,77
1074,67	15,77
1074,911	-3,23
1075,151	-3,23
1075,392	-7,23
1075,633	2,77
1075,874	-10,23
1076,114	-7,23
1076,355	-6,23
1076,596	-3,23
1076,837	6,77
1077,077	-5,23
1077,318	-15,23
1077,559	1,77
1077,8	-3,23
1078,04	-4,23
1078,281	-2,23
1078,522	0,77
1078,762	-11,23
1079,003	13,77
1079,244	7,77
1079,484	0,77
1079,725	11,77
1079,965	10,77
1080,206	-6,23
1080,447	11,77
1080,687	-7,23
1080,928	5,77
1081,168	-10,23
1081,409	1,77
1081,649	-11,23
1081,89	5,77
1082,131	8,77
1082,371	-2,23
1082,612	-0,23
1082,852	2,77
1083,093	5,77
1083,333	4,77
1083,573	-14,23
1083,814	11,77
1084,054	-3,23
1084,295	13,77
1084,535	9,77
1084,776	-5,23
1085,016	-8,23
1085,257	-9,23
1085,497	12,77
1085,737	21,77
1085,978	10,77
1086,218	-6,23
1086,458	0,77
1086,699	13,77
1086,939	-3,23
1087,179	1,77
1087,42	12,77
1087,66	-7,23
1087,9	-8,23
1088,141	-2,23
1088,381	-7,23
1088,621	-13,23
1088,861	-9,23
1089,102	2,77
1089,342	-2,23
1089,582	1,77
1089,822	-5,23
1090,063	0,77
1090,303	14,77
1090,543	-5,23
1090,783	-7,23
1091,023	-0,23
1091,263	-5,23
1091,504	-2,23
1091,744	5,77
1091,984	14,77
1092,224	-4,23
1092,464	-3,23
1092,704	-8,23
1092,944	-9,23
1093,184	-3,23
1093,425	-5,23
1093,665	-7,23
1093,905	-7,23
1094,145	1,77
1094,385	-3,23
1094,625	-6,23
1094,865	3,77
1095,105	6,77
1095,345	-0,23
1095,585	-8,23
1095,825	-0,23
1096,065	1,77
1096,305	-7,23
1096,545	12,77
1096,785	-3,23
1097,025	18,77
1097,265	0,77
1097,504	-4,23
1097,744	1,77
1097,984	5,77
1098,224	4,77
1098,464	-3,23
1098,704	16,77
1098,944	-3,23
1099,184	-11,23
1099,423	-3,23
1099,663	8,77
1099,903	-7,23
1100,143	-7,23
1100,383	3,77
1100,622	-3,23
1100,862	4,77
1101,102	2,77
1101,342	10,77
1101,582	-0,23
1101,821	-9,23
1102,061	-3,23
1102,301	7,77
1102,54	5,77
1102,78	-1,23
1103,02	-5,23
1103,26	-3,23
1103,499	-6,23
1103,739	0,77
1103,979	7,77
1104,218	12,77
1104,458	7,77
1104,697	-1,23
1104,937	10,77
1105,177	-0,23
1105,416	-2,23
1105,656	6,77
1105,896	-0,23
1106,135	-10,23
1106,375	5,77
1106,614	9,77
1106,854	7,77
1107,093	1,77
1107,333	-8,23
1107,572	-8,23
1107,812	-7,23
1108,051	13,77
1108,291	4,77
1108,53	-6,23
1108,77	-1,23
1109,009	10,77
1109,249	2,77
1109,488	-14,23
1109,728	-13,23
1109,967	-2,23
1110,206	-14,23
1110,446	-5,23
1110,685	10,77
1110,925	7,77
1111,164	8,77
1111,403	6,77
1111,643	4,77
1111,882	-22,23
1112,121	-17,23
1112,361	20,77
1112,6	11,77
1112,839	10,77
1113,079	-1,23
1113,318	-7,23
1113,557	1,77
1113,796	0,77
1114,036	-5,23
1114,275	-4,23
1114,514	13,77
1114,753	2,77
1114,993	4,77
1115,232	-6,23
1115,471	10,77
1115,71	18,77
1115,949	8,77
1116,188	-13,23
1116,428	-8,23
1116,667	-8,23
1116,906	-10,23
1117,145	0,77
1117,384	-7,23
1117,623	-3,23
1117,862	13,77
1118,101	0,77
1118,341	10,77
1118,58	22,77
1118,819	19,77
1119,058	-3,23
1119,297	9,77
1119,536	9,77
1119,775	4,77
1120,014	4,77
1120,253	2,77
1120,492	-6,23
1120,731	-0,23
1120,97	11,77
1121,209	2,77
1121,448	5,77
1121,687	16,77
1121,926	7,77
1122,165	-17,23
1122,404	-3,23
1122,642	3,77
1122,881	-7,23
1123,12	3,77
1123,359	5,77
1123,598	-7,23
1123,837	6,77
1124,076	-1,23
1124,315	7,77
1124,553	-6,23
1124,792	-7,23
1125,031	12,77
1125,27	3,77
1125,509	-2,23
1125,747	1,77
1125,986	8,77
1126,225	2,77
